loadapp_2024_01_17_14_48_48_148.loadflux
comment test_poids
	PGV247-L::heel	PGV247-L::medial	PGV247-L::lateral	PGV247-L		PGV247-L::xAcc	PGV247-L::yAcc	PGV247-L::zAcc	PGV247-L::xGyro	PGV247-L::yGyro	PGV247-L::zGyro		PGV244-R::lateral	PGV244-R::medial	PGV244-R::heel	PGV244-R		PGV244-R::xAcc	PGV244-R::yAcc	PGV244-R::zAcc	PGV244-R::xGyro	PGV244-R::yGyro	PGV244-R::zGyro		
Time[secs]	Force[N]	Force[N]	Force[N]	Force[N]	Time[secs]	[g]	[g]	[g]	[rad/s]	[rad/s]	[rad/s]	Time[secs]	Force[N]	Force[N]	Force[N]	Force[N]	Time[secs]	[g]	[g]	[g]	[rad/s]	[rad/s]	[rad/s]	
0.000	107.500	94.600	92.450	294.550	0.000	0.746	-0.673	0.030	-0.001	-0.007	0.006	0.000	59.740	64.960	145.000	269.700	0.000	0.795	-0.646	0.043	0.034	0.018	0.003		
0.005	107.500	89.870	92.450	289.820	0.005	0.746	-0.673	0.030	0.001	-0.005	0.007	0.005	59.740	62.060	145.000	266.800	0.005	0.795	-0.646	0.043	0.033	0.018	0.003		
0.010	104.920	89.870	89.870	284.660	0.010	0.746	-0.673	0.030	0.002	-0.004	0.007	0.010	59.740	62.060	145.000	266.800	0.010	0.795	-0.646	0.043	0.031	0.020	0.003		
0.015	107.500	92.450	89.870	289.820	0.015	0.746	-0.673	0.030	0.001	-0.006	0.006	0.015	59.740	64.960	145.000	269.700	0.015	0.795	-0.646	0.043	0.029	0.022	0.003		
0.020	107.500	89.870	89.870	287.240	0.020	0.746	-0.673	0.030	0.000	-0.011	0.004	0.020	59.740	64.960	145.000	269.700	0.020	0.795	-0.646	0.043	0.026	0.022	0.003		
0.025	107.500	89.870	89.870	287.240	0.025	0.773	-0.631	0.017	0.000	-0.013	0.003	0.025	62.060	64.960	145.000	272.020	0.025	0.785	-0.625	0.084	0.025	0.021	0.002		
0.030	107.500	89.870	92.450	289.820	0.030	0.766	-0.628	0.016	-0.001	-0.013	0.003	0.030	59.740	64.960	145.000	269.700	0.030	0.779	-0.622	0.083	0.023	0.018	0.002		
0.035	107.500	89.870	87.290	284.660	0.035	0.764	-0.630	0.016	-0.002	-0.011	0.003	0.035	59.740	64.960	142.100	266.800	0.035	0.778	-0.623	0.083	0.022	0.015	0.001		
0.040	107.500	92.450	92.450	292.400	0.040	0.765	-0.634	0.016	-0.002	-0.007	0.003	0.040	59.740	64.960	142.100	266.800	0.040	0.781	-0.625	0.083	0.020	0.011	0.001		
0.045	107.500	92.450	89.870	289.820	0.045	0.768	-0.639	0.015	-0.001	-0.005	0.003	0.045	59.740	64.960	142.100	266.800	0.045	0.784	-0.627	0.081	0.019	0.007	0.000		
0.050	104.920	89.870	89.870	284.660	0.050	3.893	4.515	3.890	-7.870	9.851	8.487	0.050	59.740	64.960	139.780	264.480	0.050	-11.216	8.831	-11.169	-1.289	19.266	-24.367		
0.055	107.360	92.400	89.760	289.520	0.055	0.771	-0.643	0.015	0.001	-0.004	0.002	0.055	59.850	64.980	142.500	267.330	0.055	0.788	-0.629	0.080	0.017	0.004	0.000		
0.060	107.360	89.760	89.760	286.880	0.060	0.775	-0.645	0.015	0.002	-0.004	0.001	0.060	59.850	64.980	142.500	267.330	0.060	0.791	-0.630	0.079	0.015	0.002	-0.001		
0.065	107.360	89.760	89.760	286.880	0.065	0.779	-0.645	0.015	0.004	-0.004	0.000	0.065	59.850	64.980	139.650	264.480	0.065	0.792	-0.629	0.078	0.013	0.001	-0.002		
0.070	107.360	92.400	89.760	289.520	0.070	0.782	-0.643	0.016	0.005	-0.004	-0.001	0.070	59.850	64.980	142.500	267.330	0.070	0.794	-0.629	0.078	0.011	0.000	-0.002		
0.075	110.000	89.760	89.760	289.520	0.075	0.782	-0.641	0.016	0.006	-0.003	-0.001	0.075	59.850	67.260	142.500	269.610	0.075	0.794	-0.628	0.078	0.009	0.000	-0.003		
0.080	110.000	89.760	89.760	289.520	0.080	0.781	-0.638	0.016	0.005	-0.002	-0.001	0.080	59.850	67.260	142.500	269.610	0.080	0.795	-0.626	0.078	0.007	0.000	-0.004		
0.085	107.360	92.400	89.760	289.520	0.085	0.779	-0.637	0.016	0.004	0.000	-0.001	0.085	59.850	64.980	142.500	267.330	0.085	0.795	-0.625	0.077	0.006	-0.001	-0.004		
0.090	107.360	92.400	92.400	292.160	0.090	0.777	-0.636	0.017	0.003	0.002	0.000	0.090	59.850	64.980	142.500	267.330	0.090	0.795	-0.624	0.077	0.005	-0.002	-0.004		
0.095	110.000	92.400	92.400	294.800	0.095	0.777	-0.636	0.017	0.002	0.003	0.001	0.095	59.850	64.980	142.500	267.330	0.095	0.794	-0.624	0.076	0.005	-0.003	-0.004		
0.100	107.360	89.760	92.400	289.520	0.100	0.776	-0.636	0.017	0.002	0.003	0.001	0.100	57.000	67.260	142.500	266.760	0.100	0.794	-0.625	0.076	0.005	-0.005	-0.004		
0.105	107.360	92.400	89.760	289.520	0.105	0.777	-0.637	0.017	0.002	0.003	0.001	0.105	62.130	64.980	142.500	269.610	0.105	0.793	-0.626	0.075	0.005	-0.006	-0.004		
0.110	110.000	92.400	89.760	292.160	0.110	0.777	-0.637	0.018	0.002	0.003	0.001	0.110	59.850	64.980	139.650	264.480	0.110	0.792	-0.627	0.075	0.005	-0.007	-0.004		
0.115	110.000	92.400	89.760	292.160	0.115	0.778	-0.638	0.018	0.003	0.002	0.001	0.115	62.130	67.260	142.500	271.890	0.115	0.792	-0.627	0.075	0.004	-0.009	-0.004		
0.120	107.360	92.400	92.400	292.160	0.120	0.778	-0.638	0.018	0.002	0.002	0.001	0.120	62.130	67.260	139.650	269.040	0.120	0.792	-0.628	0.075	0.003	-0.009	-0.004		
0.125	107.360	92.400	92.400	292.160	0.125	0.778	-0.639	0.018	0.002	0.002	0.001	0.125	59.850	64.980	139.650	264.480	0.125	0.792	-0.628	0.075	0.001	-0.009	-0.004		
0.130	110.000	92.400	89.760	292.160	0.130	0.778	-0.638	0.017	0.001	0.003	0.000	0.130	59.850	67.260	139.650	266.760	0.130	0.792	-0.627	0.074	0.000	-0.009	-0.004		
0.135	110.000	92.400	92.400	294.800	0.135	0.778	-0.638	0.017	0.000	0.004	0.000	0.135	62.130	67.260	139.650	269.040	0.135	0.792	-0.626	0.073	-0.002	-0.009	-0.004		
0.140	110.000	92.400	89.760	292.160	0.140	0.779	-0.638	0.017	-0.001	0.005	0.001	0.140	62.130	64.980	137.370	264.480	0.140	0.791	-0.626	0.072	-0.003	-0.009	-0.004		
0.145	110.000	92.400	92.400	294.800	0.145	0.779	-0.638	0.016	-0.003	0.006	0.001	0.145	59.850	64.980	137.370	262.200	0.145	0.790	-0.625	0.071	-0.004	-0.007	-0.004		
0.150	107.360	92.400	92.400	292.160	0.150	0.779	-0.639	0.016	-0.003	0.007	0.001	0.150	62.130	67.260	137.370	266.760	0.150	0.790	-0.625	0.070	-0.005	-0.006	-0.003		
0.155	110.000	92.400	92.400	294.800	0.155	0.779	-0.639	0.016	-0.004	0.007	0.002	0.155	62.130	64.980	134.520	261.630	0.155	0.789	-0.625	0.070	-0.007	-0.004	-0.003		
0.160	110.000	94.600	92.400	297.000	0.160	0.779	-0.640	0.017	-0.003	0.007	0.002	0.160	62.130	64.980	139.650	266.760	0.160	0.790	-0.624	0.070	-0.009	-0.002	-0.003		
0.165	110.000	94.600	92.400	297.000	0.165	0.779	-0.640	0.018	-0.002	0.006	0.002	0.165	64.980	64.980	139.650	269.610	0.165	0.792	-0.625	0.078	-0.003	0.030	0.001		
0.170	107.360	92.400	92.400	292.160	0.170	0.778	-0.640	0.018	0.000	0.005	0.002	0.170	62.130	67.260	137.370	266.760	0.170	0.794	-0.625	0.081	-0.003	0.030	0.000		
0.175	110.000	92.400	92.400	294.800	0.175	0.778	-0.639	0.019	0.001	0.004	0.003	0.175	64.980	69.540	137.370	271.890	0.175	0.796	-0.625	0.083	-0.001	0.028	-0.001		
0.180	110.000	92.400	92.400	294.800	0.180	0.778	-0.639	0.019	0.002	0.003	0.003	0.180	62.130	67.260	139.650	269.040	0.180	0.796	-0.625	0.084	0.001	0.025	-0.002		
0.185	107.360	94.600	94.600	296.560	0.185	0.777	-0.639	0.018	0.002	0.002	0.003	0.185	64.980	69.540	142.500	277.020	0.185	0.796	-0.625	0.084	0.004	0.019	-0.003		
0.190	107.360	94.600	89.760	291.720	0.190	0.777	-0.639	0.018	0.001	0.002	0.003	0.195	62.130	69.540	139.650	271.320	0.195	0.796	-0.625	0.083	0.007	0.013	-0.004		
0.195	107.360	89.760	89.760	286.880	0.195	0.776	-0.640	0.017	0.001	0.002	0.004	0.195	62.130	69.540	139.650	271.320	0.195	0.796	-0.625	0.083	0.007	0.013	-0.004		
0.200	110.000	89.760	92.400	292.160	0.200	0.777	-0.641	0.017	0.000	0.002	0.004	0.200	62.130	69.540	139.650	271.320	0.200	0.796	-0.625	0.081	0.011	0.007	-0.004		
0.205	107.360	92.400	89.760	289.520	0.205	0.777	-0.641	0.017	-0.001	0.002	0.004	0.205	62.130	67.260	139.650	269.040	0.205	0.796	-0.625	0.079	0.012	0.002	-0.003		
0.210	107.360	89.760	92.400	289.520	0.210	0.777	-0.641	0.017	-0.001	0.002	0.004	0.210	64.980	67.260	139.650	271.890	0.210	0.796	-0.625	0.077	0.013	-0.001	-0.003		
0.215	107.360	89.760	89.760	286.880	0.215	0.777	-0.642	0.017	-0.001	0.003	0.003	0.215	62.130	67.260	137.370	266.760	0.215	0.795	-0.625	0.076	0.013	-0.005	-0.002		
0.220	107.500	92.450	89.870	289.820	0.220	0.777	-0.642	0.017	-0.001	0.003	0.003	0.220	64.980	64.980	139.650	269.610	0.220	0.794	-0.626	0.076	0.012	-0.007	-0.002		
0.225	107.500	92.450	89.870	289.820	0.225	0.776	-0.643	0.016	-0.001	0.003	0.002	0.225	-1.000	-1.000	-1.000	0.000	0.225	-	-	-	-	-	-		
0.230	104.920	94.600	89.870	289.390	0.230	0.775	-0.643	0.016	0.000	0.003	0.002	0.230	-1.000	-1.000	-1.000	0.000	0.230	-	-	-	-	-	-		
0.235	104.920	92.450	89.870	287.240	0.235	0.775	-0.643	0.016	0.001	0.002	0.002	0.235	-1.000	-1.000	-1.000	0.000	0.235	-	-	-	-	-	-		
0.240	107.500	94.600	92.450	294.550	0.240	0.774	-0.642	0.016	0.002	0.002	0.001	0.240	-1.000	-1.000	-1.000	0.000	0.240	-	-	-	-	-	-		
0.245	107.500	92.450	92.450	292.400	0.245	0.775	-0.641	0.016	0.003	0.001	0.001	0.245	-1.000	-1.000	-1.000	0.000	0.245	-	-	-	-	-	-		
0.250	107.500	92.450	89.870	289.820	0.250	0.775	-0.640	0.016	0.004	0.000	0.001	0.250	-1.000	-1.000	-1.000	0.000	0.250	-	-	-	-	-	-		
0.255	104.920	94.600	92.450	291.970	0.255	0.776	-0.639	0.015	0.005	0.000	0.001	0.255	-1.000	-1.000	-1.000	0.000	0.255	-	-	-	-	-	-		
0.260	104.920	92.450	92.450	289.820	0.260	0.777	-0.639	0.015	0.006	0.000	0.000	0.260	-1.000	-1.000	-1.000	0.000	0.260	-	-	-	-	-	-		
0.265	104.920	92.450	89.870	287.240	0.265	0.777	-0.639	0.015	0.006	0.001	0.000	0.265	-1.000	-1.000	-1.000	0.000	0.265	-	-	-	-	-	-		
0.270	104.920	92.450	92.450	289.820	0.270	0.777	-0.639	0.015	0.007	0.001	0.000	0.270	-1.000	-1.000	-1.000	0.000	0.270	-	-	-	-	-	-		
0.275	104.920	92.450	89.870	287.240	0.275	0.776	-0.640	0.015	0.007	0.001	-0.001	0.275	-1.000	-1.000	-1.000	0.000	0.275	-	-	-	-	-	-		
0.280	104.920	94.600	92.450	291.970	0.280	0.775	-0.641	0.015	0.007	0.002	-0.001	0.280	62.130	67.260	139.650	269.040	0.280	0.793	-0.626	0.077	0.011	-0.009	-0.001		
0.285	102.340	94.600	92.450	289.390	0.285	0.775	-0.642	0.016	0.009	0.002	-0.001	0.285	64.980	69.540	142.500	277.020	0.285	0.792	-0.626	0.077	0.009	-0.010	-0.001		
0.290	104.920	92.450	89.870	287.240	0.290	0.775	-0.642	0.017	0.010	0.001	-0.002	0.290	62.130	67.260	139.650	269.040	0.290	0.792	-0.626	0.077	0.007	-0.011	-0.001		
0.295	107.500	94.600	92.450	294.550	0.295	0.776	-0.641	0.018	0.012	0.001	-0.002	0.295	62.130	67.260	137.370	266.760	0.295	0.792	-0.625	0.077	0.005	-0.011	-0.001		
0.300	107.500	92.450	92.450	292.400	0.300	0.776	-0.639	0.018	0.013	0.000	-0.002	0.300	64.980	69.540	139.650	274.170	0.300	0.793	-0.625	0.076	0.003	-0.012	-0.001		
0.305	104.920	92.450	89.870	287.240	0.305	0.776	-0.638	0.018	0.014	-0.001	-0.003	0.305	64.980	67.260	139.650	271.890	0.305	0.794	-0.624	0.075	0.002	-0.012	-0.001		
0.310	104.920	92.450	92.450	289.820	0.310	0.776	-0.636	0.018	0.013	-0.002	-0.003	0.310	64.980	69.540	137.370	271.890	0.310	0.794	-0.624	0.076	0.002	-0.013	-0.001		
0.320	107.500	92.450	92.450	292.400	0.320	0.776	-0.636	0.017	0.012	-0.002	-0.003	0.315	64.980	69.540	139.650	274.170	0.315	0.794	-0.625	0.076	0.002	-0.014	-0.001		
0.320	107.500	92.450	92.450	292.400	0.320	0.776	-0.636	0.017	0.012	-0.002	-0.003	0.320	64.980	69.540	137.370	271.890	0.320	0.793	-0.625	0.076	0.002	-0.014	-0.001		
0.325	107.500	92.450	92.450	292.400	0.325	0.777	-0.636	0.017	0.012	-0.001	-0.002	0.325	64.980	69.540	137.370	271.890	0.325	0.793	-0.625	0.076	0.002	-0.015	-0.001		
0.330	104.920	92.450	89.870	287.240	0.330	0.778	-0.637	0.017	0.011	-0.001	-0.002	0.330	64.980	69.540	139.650	274.170	0.330	0.793	-0.625	0.075	0.001	-0.015	-0.001		
0.335	104.920	92.450	92.450	289.820	0.335	0.778	-0.639	0.016	0.011	-0.001	-0.001	0.335	64.960	70.000	140.000	274.960	0.335	0.793	-0.625	0.075	0.000	-0.016	-0.001		
0.340	104.920	89.870	92.450	287.240	0.340	0.777	-0.640	0.016	0.011	-0.001	-0.001	0.340	64.960	70.000	137.200	272.160	0.340	0.793	-0.625	0.074	-0.002	-0.015	-0.001		
0.345	104.920	92.450	92.450	289.820	0.345	0.776	-0.640	0.016	0.012	-0.001	0.000	0.345	64.960	70.000	137.200	272.160	0.345	0.792	-0.625	0.074	-0.003	-0.015	-0.001		
0.350	104.920	94.600	89.870	289.390	0.350	0.775	-0.640	0.016	0.012	-0.002	0.000	0.350	64.960	67.200	137.200	269.360	0.350	0.792	-0.625	0.074	-0.004	-0.015	0.000		
0.355	104.920	89.870	89.870	284.660	0.355	0.775	-0.638	0.017	0.013	-0.003	0.000	0.355	64.960	70.000	140.000	274.960	0.355	0.790	-0.625	0.074	-0.003	-0.016	0.000		
0.360	104.920	89.870	92.450	287.240	0.360	0.776	-0.637	0.017	0.013	-0.004	0.000	0.360	64.960	67.200	137.200	269.360	0.360	0.789	-0.625	0.073	-0.003	-0.016	0.000		
0.365	104.920	92.450	89.870	287.240	0.365	0.776	-0.636	0.018	0.012	-0.004	0.000	0.365	64.960	70.000	140.000	274.960	0.365	0.788	-0.625	0.072	-0.002	-0.016	-0.001		
0.370	107.500	92.450	92.450	292.400	0.370	0.777	-0.636	0.018	0.010	-0.004	0.000	0.370	64.960	70.000	137.200	272.160	0.370	0.789	-0.625	0.071	-0.002	-0.015	-0.001		
0.375	107.500	92.450	92.450	292.400	0.375	0.778	-0.637	0.018	0.007	-0.003	0.000	0.375	62.160	67.200	140.000	269.360	0.375	0.790	-0.624	0.069	-0.001	-0.014	-0.001		
0.380	107.500	89.870	92.450	289.820	0.380	0.778	-0.638	0.018	0.004	-0.002	0.000	0.380	64.960	70.000	137.200	272.160	0.380	0.792	-0.624	0.069	-0.001	-0.013	-0.002		
0.385	104.920	92.450	92.450	289.820	0.385	0.778	-0.639	0.018	0.002	-0.001	0.000	0.390	64.960	70.000	134.960	269.920	0.390	0.793	-0.623	0.069	0.000	-0.012	-0.002		
0.390	104.720	92.400	92.400	289.520	0.390	0.777	-0.637	0.018	0.001	0.011	-0.001	0.390	64.960	70.000	134.960	269.920	0.390	0.793	-0.623	0.069	0.000	-0.012	-0.002		
0.395	107.360	94.600	92.400	294.360	0.395	0.777	-0.637	0.018	0.000	0.012	0.000	0.395	64.900	69.850	137.500	272.250	0.395	0.795	-0.622	0.070	0.001	-0.011	-0.002		
0.400	107.360	94.600	92.400	294.360	0.400	0.778	-0.637	0.018	0.000	0.011	0.000	0.400	64.900	69.850	134.750	269.500	0.400	0.795	-0.622	0.072	0.002	-0.010	-0.001		
0.405	107.360	92.400	89.760	289.520	0.405	0.778	-0.637	0.018	0.001	0.010	0.000	0.405	64.900	69.850	137.500	272.250	0.405	0.795	-0.622	0.072	0.002	-0.009	-0.001		
0.410	107.360	92.400	89.760	289.520	0.410	0.778	-0.637	0.018	0.001	0.009	0.000	0.410	64.900	67.100	137.500	269.500	0.410	0.794	-0.622	0.073	0.002	-0.007	0.000		
0.415	110.000	92.400	89.760	292.160	0.415	0.778	-0.637	0.019	0.001	0.007	0.000	0.415	64.900	69.850	137.500	272.250	0.415	0.792	-0.622	0.074	0.001	-0.006	0.000		
0.420	110.000	92.400	92.400	294.800	0.420	0.777	-0.637	0.019	0.001	0.007	0.000	0.420	64.900	67.100	134.750	266.750	0.420	0.792	-0.621	0.075	-0.001	-0.004	0.000		
0.425	107.360	92.400	89.760	289.520	0.425	0.777	-0.638	0.019	0.001	0.006	0.000	0.425	64.900	69.850	134.750	269.500	0.425	0.791	-0.622	0.076	-0.004	-0.002	0.001		
0.430	107.360	92.400	89.760	289.520	0.430	0.776	-0.639	0.018	0.000	0.006	0.001	0.430	64.900	69.850	134.750	269.500	0.430	0.792	-0.622	0.077	-0.006	-0.001	0.001		
0.435	110.000	92.400	89.760	292.160	0.435	0.775	-0.641	0.018	-0.001	0.006	0.001	0.435	64.900	67.100	134.750	266.750	0.435	0.792	-0.623	0.077	-0.010	0.000	0.001		
0.440	110.000	92.400	89.760	292.160	0.440	0.775	-0.643	0.018	-0.001	0.005	0.001	0.440	64.900	67.100	134.750	266.750	0.440	0.792	-0.624	0.077	-0.011	0.000	0.001		
0.445	-1.000	-1.000	-1.000	0.000	0.445	-	-	-	-	-	-	0.445	64.900	67.100	137.500	269.500	0.445	0.793	-0.624	0.076	-0.011	0.000	0.001		
0.450	-1.000	-1.000	-1.000	0.000	0.450	-	-	-	-	-	-	0.450	62.130	67.260	139.650	269.040	0.450	0.792	-0.626	0.079	-0.004	-0.010	0.000		
0.455	-1.000	-1.000	-1.000	0.000	0.455	-	-	-	-	-	-	0.455	62.130	67.260	139.650	269.040	0.455	0.792	-0.626	0.079	-0.005	-0.011	0.000		
0.460	-1.000	-1.000	-1.000	0.000	0.460	-	-	-	-	-	-	0.460	62.130	69.540	139.650	271.320	0.460	0.792	-0.626	0.079	-0.005	-0.013	-0.001		
0.465	-1.000	-1.000	-1.000	0.000	0.465	-	-	-	-	-	-	0.465	59.850	62.130	139.650	261.630	0.465	0.791	-0.626	0.077	-0.005	-0.014	-0.001		
0.470	-1.000	-1.000	-1.000	0.000	0.470	-	-	-	-	-	-	0.470	62.130	67.260	142.500	271.890	0.470	0.792	-0.625	0.076	-0.005	-0.016	-0.002		
0.475	-1.000	-1.000	-1.000	0.000	0.475	-	-	-	-	-	-	0.475	62.130	67.260	142.500	271.890	0.475	0.792	-0.625	0.075	-0.005	-0.017	-0.002		
0.480	-1.000	-1.000	-1.000	0.000	0.480	-	-	-	-	-	-	0.480	62.130	64.980	142.500	269.610	0.480	0.793	-0.624	0.073	-0.004	-0.018	-0.002		
0.485	-1.000	-1.000	-1.000	0.000	0.485	-	-	-	-	-	-	0.485	62.130	64.980	142.500	269.610	0.485	0.794	-0.624	0.072	-0.004	-0.018	-0.001		
0.490	-1.000	-1.000	-1.000	0.000	0.490	-	-	-	-	-	-	0.490	62.130	64.980	142.500	269.610	0.490	0.794	-0.624	0.070	-0.003	-0.018	-0.001		
0.495	-1.000	-1.000	-1.000	0.000	0.495	-	-	-	-	-	-	0.495	62.130	64.980	139.650	266.760	0.495	0.793	-0.624	0.070	-0.002	-0.018	0.000		
0.500	110.000	92.400	92.400	294.800	0.500	0.775	-0.644	0.019	0.000	0.005	0.000	0.500	62.130	64.980	142.500	269.610	0.500	0.792	-0.624	0.069	-0.002	-0.017	0.000		
0.505	107.360	89.760	89.760	286.880	0.505	0.775	-0.644	0.019	0.000	0.003	-0.001	0.505	-1.000	-1.000	-1.000	0.000	0.505	-	-	-	-	-	-		
0.510	107.360	92.400	92.400	292.160	0.510	0.776	-0.643	0.019	0.001	0.002	-0.001	0.510	-1.000	-1.000	-1.000	0.000	0.510	-	-	-	-	-	-		
0.515	110.000	89.760	89.760	289.520	0.515	0.777	-0.641	0.020	0.002	0.001	-0.002	0.515	-1.000	-1.000	-1.000	0.000	0.515	-	-	-	-	-	-		
0.520	107.360	89.760	89.760	286.880	0.520	0.779	-0.639	0.020	0.003	0.000	-0.002	0.520	-1.000	-1.000	-1.000	0.000	0.520	-	-	-	-	-	-		
0.525	107.360	92.400	89.760	289.520	0.525	0.779	-0.637	0.020	0.004	-0.001	-0.002	0.525	-1.000	-1.000	-1.000	0.000	0.525	-	-	-	-	-	-		
0.530	107.360	92.400	92.400	292.160	0.530	0.779	-0.637	0.019	0.003	0.000	-0.002	0.530	-1.000	-1.000	-1.000	0.000	0.530	-	-	-	-	-	-		
0.535	110.000	92.400	89.760	292.160	0.535	0.778	-0.637	0.019	0.002	0.000	-0.001	0.535	-1.000	-1.000	-1.000	0.000	0.535	-	-	-	-	-	-		
0.540	107.360	92.400	92.400	292.160	0.540	0.777	-0.638	0.018	0.001	0.001	-0.001	0.540	-1.000	-1.000	-1.000	0.000	0.540	-	-	-	-	-	-		
0.545	110.000	92.400	89.760	292.160	0.545	0.776	-0.638	0.018	-0.001	0.001	0.000	0.545	-1.000	-1.000	-1.000	0.000	0.545	-	-	-	-	-	-		
0.550	110.000	92.400	89.760	292.160	0.550	0.776	-0.639	0.017	-0.001	0.001	0.000	0.550	-1.000	-1.000	-1.000	0.000	0.550	-	-	-	-	-	-		
0.555	107.360	92.400	92.400	292.160	0.555	0.775	-0.639	0.017	-0.001	0.000	0.001	0.555	-1.000	-1.000	-1.000	0.000	0.555	-	-	-	-	-	-		
0.560	107.360	89.760	89.760	286.880	0.560	0.775	-0.639	0.017	-0.001	0.000	0.001	0.560	62.060	67.280	145.000	274.340	0.560	0.792	-0.624	0.068	-0.002	-0.016	0.001		
0.565	110.000	89.760	89.760	289.520	0.565	0.776	-0.639	0.017	0.000	-0.001	0.001	0.565	59.740	64.960	142.100	266.800	0.565	0.792	-0.623	0.067	-0.002	-0.014	0.001		
0.570	107.360	89.760	89.760	286.880	0.570	0.778	-0.640	0.017	0.001	-0.002	0.002	0.570	62.060	64.960	142.100	269.120	0.570	0.792	-0.623	0.066	-0.002	-0.012	0.001		
0.575	110.000	92.400	92.400	294.800	0.575	0.779	-0.640	0.017	0.001	-0.002	0.002	0.575	59.740	64.960	145.000	269.700	0.575	0.792	-0.623	0.066	-0.001	-0.010	0.002		
0.580	107.360	92.400	92.400	292.160	0.580	0.780	-0.640	0.017	0.000	-0.001	0.002	0.585	62.060	64.960	145.000	272.020	0.585	0.793	-0.623	0.064	0.000	-0.009	0.002		
0.585	110.000	94.600	92.400	297.000	0.585	0.780	-0.640	0.018	-0.001	0.000	0.002	0.585	62.060	64.960	145.000	272.020	0.585	0.793	-0.623	0.064	0.000	-0.009	0.002		
0.590	110.000	89.760	89.760	289.520	0.590	0.780	-0.640	0.017	-0.002	0.002	0.002	0.590	62.060	64.960	145.000	272.020	0.590	0.793	-0.623	0.064	0.003	-0.007	0.002		
0.595	107.360	89.760	89.760	286.880	0.595	0.778	-0.640	0.017	-0.003	0.004	0.002	0.595	59.740	64.960	145.000	269.700	0.595	0.793	-0.622	0.063	0.007	-0.006	0.003		
0.600	110.000	89.760	89.760	289.520	0.600	0.777	-0.640	0.016	-0.004	0.005	0.001	0.600	59.740	64.960	145.000	269.700	0.600	0.793	-0.622	0.063	0.012	-0.005	0.004		
0.605	110.000	92.400	89.760	292.160	0.605	0.776	-0.640	0.016	-0.003	0.005	0.001	0.605	62.060	64.960	145.000	272.020	0.605	0.793	-0.622	0.064	0.015	-0.004	0.004		
0.610	110.000	89.760	87.120	286.880	0.610	0.776	-0.640	0.015	-0.002	0.005	0.000	0.610	59.740	64.960	145.000	269.700	0.610	0.793	-0.623	0.065	0.017	-0.002	0.004		
0.615	107.360	89.760	89.760	286.880	0.615	0.776	-0.639	0.015	0.000	0.004	0.000	0.615	62.060	64.960	142.100	269.120	0.615	0.793	-0.624	0.067	0.017	0.000	0.004		
0.620	110.000	92.400	87.120	289.520	0.620	0.776	-0.639	0.016	0.001	0.004	0.000	0.620	61.950	64.900	144.550	271.400	0.620	0.793	-0.629	0.078	0.005	-0.009	0.000		
0.625	107.360	89.760	89.760	286.880	0.625	0.777	-0.639	0.016	0.003	0.004	0.000	0.625	59.590	67.260	142.190	269.040	0.625	0.794	-0.628	0.078	0.003	-0.010	-0.001		
0.630	110.000	89.760	89.760	289.520	0.630	0.778	-0.640	0.017	0.003	0.004	0.001	0.630	61.950	67.260	144.550	273.760	0.630	0.794	-0.627	0.077	0.001	-0.011	-0.001		
0.640	110.000	87.120	89.760	286.880	0.640	0.779	-0.641	0.017	0.004	0.005	0.001	0.635	59.590	61.950	147.500	269.040	0.635	0.794	-0.626	0.076	0.000	-0.013	-0.002		
0.640	110.000	87.120	89.760	286.880	0.640	0.779	-0.641	0.017	0.004	0.005	0.001	0.640	59.590	64.900	144.550	269.040	0.640	0.794	-0.625	0.075	0.000	-0.014	-0.002		
0.645	110.000	89.760	89.760	289.520	0.645	0.779	-0.642	0.017	0.004	0.006	0.001	0.645	59.590	67.260	144.550	271.400	0.645	0.794	-0.624	0.074	0.000	-0.017	-0.003		
0.650	110.000	89.760	89.760	289.520	0.650	0.778	-0.643	0.017	0.004	0.006	0.001	0.650	61.950	67.260	147.500	276.710	0.650	0.795	-0.623	0.074	0.000	-0.019	-0.003		
0.655	107.360	89.760	89.760	286.880	0.655	0.777	-0.644	0.017	0.004	0.007	0.001	0.655	59.590	64.900	144.550	269.040	0.655	0.795	-0.623	0.073	0.001	-0.020	-0.002		
0.660	107.360	94.600	89.760	291.720	0.660	0.775	-0.644	0.017	0.004	0.007	0.001	0.660	59.590	64.900	147.500	271.990	0.660	0.795	-0.624	0.072	0.001	-0.022	-0.002		
0.665	110.000	89.760	87.120	286.880	0.665	0.774	-0.644	0.017	0.005	0.006	0.000	0.665	59.590	67.260	147.500	274.350	0.665	0.794	-0.625	0.072	0.002	-0.023	-0.001		
0.670	109.800	90.000	87.300	287.100	0.670	0.777	-0.639	0.019	0.004	0.011	-0.003	0.670	61.950	64.900	144.550	271.400	0.670	0.793	-0.625	0.072	0.002	-0.025	-0.001		
0.675	109.800	90.000	90.000	289.800	0.675	0.776	-0.640	0.018	0.004	0.011	-0.003	0.675	-1.000	-1.000	-1.000	0.000	0.675	-	-	-	-	-	-		
0.680	109.800	87.300	84.600	281.700	0.680	0.777	-0.641	0.018	0.004	0.010	-0.003	0.680	-1.000	-1.000	-1.000	0.000	0.680	-	-	-	-	-	-		
0.685	109.800	90.000	87.300	287.100	0.685	0.777	-0.640	0.018	0.005	0.009	-0.003	0.685	-1.000	-1.000	-1.000	0.000	0.685	-	-	-	-	-	-		
0.690	109.800	90.000	84.600	284.400	0.690	0.777	-0.639	0.018	0.005	0.009	-0.003	0.690	-1.000	-1.000	-1.000	0.000	0.690	-	-	-	-	-	-		
0.695	109.800	90.000	87.300	287.100	0.695	0.778	-0.637	0.019	0.004	0.009	-0.003	0.695	-1.000	-1.000	-1.000	0.000	0.695	-	-	-	-	-	-		
0.700	109.800	87.300	87.300	284.400	0.700	0.778	-0.636	0.019	0.003	0.009	-0.003	0.700	-1.000	-1.000	-1.000	0.000	0.700	-	-	-	-	-	-		
0.705	109.800	87.300	87.300	284.400	0.705	0.778	-0.636	0.020	0.002	0.010	-0.003	0.705	-1.000	-1.000	-1.000	0.000	0.705	-	-	-	-	-	-		
0.710	109.800	90.000	90.000	289.800	0.710	0.778	-0.637	0.021	0.000	0.010	-0.003	0.710	-1.000	-1.000	-1.000	0.000	0.710	-	-	-	-	-	-		
0.715	109.800	90.000	90.000	289.800	0.715	0.778	-0.638	0.020	-0.001	0.011	-0.003	0.715	-1.000	-1.000	-1.000	0.000	0.715	-	-	-	-	-	-		
0.720	112.500	90.000	87.300	289.800	0.720	0.777	-0.639	0.020	-0.002	0.012	-0.003	0.720	-1.000	-1.000	-1.000	0.000	0.720	-	-	-	-	-	-		
0.725	-1.000	-1.000	-1.000	0.000	0.725	-	-	-	-	-	-	0.725	-1.000	-1.000	-1.000	0.000	0.725	-	-	-	-	-	-		
0.730	-1.000	-1.000	-1.000	0.000	0.730	-	-	-	-	-	-	0.730	62.400	64.800	144.600	271.800	0.730	0.792	-0.623	0.068	-0.004	-0.019	0.000		
0.735	-1.000	-1.000	-1.000	0.000	0.735	-	-	-	-	-	-	0.735	60.000	64.800	147.000	271.800	0.735	0.791	-0.624	0.067	-0.003	-0.017	0.001		
0.740	-1.000	-1.000	-1.000	0.000	0.740	-	-	-	-	-	-	0.740	62.400	64.800	147.000	274.200	0.740	0.790	-0.623	0.066	-0.004	-0.016	0.001		
0.745	-1.000	-1.000	-1.000	0.000	0.745	-	-	-	-	-	-	0.745	60.000	62.400	147.000	269.400	0.745	0.790	-0.623	0.065	-0.005	-0.013	0.001		
0.750	-1.000	-1.000	-1.000	0.000	0.750	-	-	-	-	-	-	0.750	62.400	64.800	147.000	274.200	0.750	0.790	-0.622	0.065	-0.006	-0.010	0.002		
0.755	-1.000	-1.000	-1.000	0.000	0.755	-	-	-	-	-	-	0.755	62.400	64.800	147.000	274.200	0.755	0.791	-0.622	0.065	-0.009	-0.005	0.002		
0.760	-1.000	-1.000	-1.000	0.000	0.760	-	-	-	-	-	-	0.760	60.000	64.800	147.000	271.800	0.760	0.792	-0.623	0.065	-0.010	-0.002	0.003		
0.765	-1.000	-1.000	-1.000	0.000	0.765	-	-	-	-	-	-	0.765	60.000	64.800	147.000	271.800	0.765	0.793	-0.623	0.065	-0.010	0.000	0.003		
0.770	-1.000	-1.000	-1.000	0.000	0.770	-	-	-	-	-	-	0.770	60.000	64.800	147.000	271.800	0.770	0.793	-0.624	0.066	-0.010	0.002	0.004		
0.775	-1.000	-1.000	-1.000	0.000	0.775	-	-	-	-	-	-	0.780	60.000	64.800	150.000	274.800	0.780	0.794	-0.624	0.068	-0.010	0.003	0.004		
0.780	112.500	90.000	90.000	292.500	0.780	0.777	-0.641	0.019	-0.003	0.012	-0.003	0.780	60.000	64.800	150.000	274.800	0.780	0.794	-0.624	0.068	-0.010	0.003	0.004		
0.785	112.500	90.000	87.300	289.800	0.785	0.777	-0.642	0.018	-0.003	0.012	-0.003	0.785	60.000	64.800	147.000	271.800	0.785	0.795	-0.624	0.071	-0.009	0.003	0.004		
0.790	112.500	87.300	87.300	287.100	0.790	0.777	-0.642	0.018	-0.003	0.011	-0.003	0.790	-1.000	-1.000	-1.000	0.000	0.790	-	-	-	-	-	-		
0.795	112.500	90.000	87.300	289.800	0.795	0.777	-0.642	0.017	-0.002	0.011	-0.004	0.795	-1.000	-1.000	-1.000	0.000	0.795	-	-	-	-	-	-		
0.800	109.800	90.000	87.300	287.100	0.800	0.778	-0.642	0.018	-0.001	0.011	-0.004	0.800	-1.000	-1.000	-1.000	0.000	0.800	-	-	-	-	-	-		
0.805	109.800	90.000	87.300	287.100	0.805	0.779	-0.642	0.018	0.000	0.010	-0.005	0.805	-1.000	-1.000	-1.000	0.000	0.805	-	-	-	-	-	-		
0.810	112.500	90.000	87.300	289.800	0.810	0.780	-0.642	0.018	0.001	0.011	-0.005	0.810	-1.000	-1.000	-1.000	0.000	0.810	-	-	-	-	-	-		
0.815	112.500	87.300	87.300	287.100	0.815	0.779	-0.642	0.018	0.001	0.011	-0.005	0.815	-1.000	-1.000	-1.000	0.000	0.815	-	-	-	-	-	-		
0.820	112.500	90.000	87.300	289.800	0.820	0.778	-0.642	0.018	0.002	0.011	-0.005	0.820	-1.000	-1.000	-1.000	0.000	0.820	-	-	-	-	-	-		
0.825	109.800	87.300	84.600	281.700	0.825	0.777	-0.642	0.018	0.002	0.011	-0.006	0.825	-1.000	-1.000	-1.000	0.000	0.825	-	-	-	-	-	-		
0.830	112.500	87.300	84.600	284.400	0.830	0.775	-0.641	0.018	0.002	0.010	-0.006	0.830	-1.000	-1.000	-1.000	0.000	0.830	-	-	-	-	-	-		
0.835	109.800	90.000	87.300	287.100	0.835	0.775	-0.640	0.018	0.002	0.010	-0.006	0.835	-1.000	-1.000	-1.000	0.000	0.835	-	-	-	-	-	-		
0.840	112.500	87.300	87.300	287.100	0.840	0.776	-0.638	0.019	0.002	0.009	-0.006	0.840	-1.000	-1.000	-1.000	0.000	0.840	-	-	-	-	-	-		
0.845	112.500	87.300	87.300	287.100	0.845	0.777	-0.637	0.019	0.002	0.007	-0.007	0.845	59.780	64.660	149.450	273.890	0.845	0.795	-0.624	0.073	-0.007	0.002	0.004		
0.850	112.500	87.300	87.300	287.100	0.850	0.778	-0.636	0.019	0.001	0.007	-0.007	0.850	62.220	64.660	149.450	276.330	0.850	0.795	-0.624	0.074	-0.006	0.001	0.004		
0.855	112.500	90.000	90.000	292.500	0.855	0.778	-0.635	0.019	0.000	0.007	-0.007	0.855	59.780	64.660	149.450	273.890	0.855	0.796	-0.623	0.074	-0.005	0.000	0.005		
0.860	112.500	90.000	87.300	289.800	0.860	0.778	-0.635	0.019	-0.002	0.009	-0.007	0.860	59.780	64.660	147.010	271.450	0.860	0.796	-0.623	0.074	-0.005	-0.001	0.005		
0.865	112.500	87.300	84.600	284.400	0.865	0.778	-0.636	0.019	-0.003	0.010	-0.006	0.865	59.780	62.220	147.010	269.010	0.865	0.795	-0.623	0.073	-0.005	-0.002	0.006		
0.870	109.800	87.300	84.600	281.700	0.870	0.777	-0.637	0.019	-0.004	0.011	-0.006	0.870	62.220	67.100	152.500	281.820	0.870	0.794	-0.623	0.072	-0.005	-0.003	0.006		
0.875	112.500	87.300	87.300	287.100	0.875	0.776	-0.639	0.019	-0.005	0.012	-0.006	0.875	59.780	64.660	149.450	273.890	0.875	0.793	-0.624	0.071	-0.005	-0.004	0.006		
0.880	112.500	90.000	87.300	289.800	0.880	0.776	-0.640	0.019	-0.005	0.012	-0.006	0.880	59.780	64.660	149.450	273.890	0.880	0.792	-0.625	0.070	-0.005	-0.005	0.006		
0.885	112.500	87.300	87.300	287.100	0.885	0.775	-0.641	0.019	-0.005	0.012	-0.006	0.885	59.780	62.220	147.010	269.010	0.885	0.792	-0.625	0.070	-0.006	-0.006	0.007		
0.890	112.240	87.400	87.400	287.040	0.890	0.776	-0.642	0.019	-0.004	0.011	-0.007	0.890	59.780	62.220	147.010	269.010	0.890	0.791	-0.626	0.069	-0.006	-0.006	0.006		
0.895	112.240	89.700	84.640	286.580	0.895	0.776	-0.642	0.019	-0.003	0.011	-0.007	0.895	59.780	64.660	149.450	273.890	0.895	0.790	-0.626	0.069	-0.007	-0.006	0.006		
0.900	112.240	87.400	84.640	284.280	0.900	0.776	-0.642	0.019	-0.002	0.010	-0.009	0.900	59.780	64.660	149.450	273.890	0.900	0.789	-0.627	0.069	-0.007	-0.006	0.006		
0.905	112.240	87.400	84.640	284.280	0.905	0.776	-0.641	0.019	-0.002	0.009	-0.009	0.905	59.780	64.660	149.450	273.890	0.905	0.789	-0.626	0.069	-0.006	-0.006	0.005		
0.910	115.000	89.700	87.400	292.100	0.910	0.775	-0.641	0.019	-0.001	0.007	-0.009	0.910	59.780	64.660	149.450	273.890	0.910	0.790	-0.625	0.069	-0.006	-0.006	0.005		
0.915	112.240	87.400	84.640	284.280	0.915	0.775	-0.641	0.018	-0.001	0.007	-0.010	0.915	57.340	62.220	149.450	269.010	0.915	0.791	-0.625	0.070	-0.006	-0.005	0.004		
0.920	112.240	89.700	87.400	289.340	0.920	0.776	-0.641	0.018	-0.001	0.007	-0.010	0.920	59.780	62.220	149.450	271.450	0.920	0.793	-0.624	0.070	-0.006	-0.005	0.004		
0.925	112.240	87.400	87.400	287.040	0.925	0.777	-0.641	0.019	-0.001	0.006	-0.011	0.925	59.780	62.220	149.450	271.450	0.925	0.794	-0.623	0.069	-0.005	-0.005	0.004		
0.930	115.000	87.400	84.640	287.040	0.930	0.778	-0.640	0.018	-0.001	0.006	-0.011	0.930	57.340	62.220	147.010	266.570	0.930	0.795	-0.622	0.068	-0.003	-0.006	0.005		
0.935	112.240	89.700	84.640	286.580	0.935	0.779	-0.640	0.018	-0.001	0.006	-0.011	0.935	59.780	62.220	152.500	274.500	0.935	0.795	-0.621	0.067	-0.001	-0.006	0.006		
0.940	115.000	87.400	87.400	289.800	0.940	0.779	-0.640	0.018	0.000	0.006	-0.011	0.940	57.340	64.660	149.450	271.450	0.940	0.795	-0.620	0.066	0.001	-0.006	0.007		
0.945	115.000	87.400	87.400	289.800	0.945	0.779	-0.639	0.018	0.000	0.006	-0.011	0.945	59.780	62.220	149.450	271.450	0.945	0.794	-0.620	0.065	0.004	-0.006	0.009		
0.950	112.240	87.400	87.400	287.040	0.950	0.778	-0.638	0.019	0.000	0.006	-0.011	0.950	59.780	64.660	149.450	273.890	0.950	0.794	-0.620	0.064	0.006	-0.006	0.010		
0.955	112.240	87.400	87.400	287.040	0.955	0.778	-0.638	0.019	0.000	0.006	-0.011	0.955	57.340	62.220	149.450	269.010	0.955	0.792	-0.626	0.071	0.004	0.004	0.011		
0.965	115.000	89.700	84.640	289.340	0.965	0.777	-0.638	0.018	0.000	0.007	-0.011	0.960	57.340	62.220	152.500	272.060	0.960	0.793	-0.626	0.070	0.004	0.004	0.011		
0.965	115.000	89.700	84.640	289.340	0.965	0.777	-0.638	0.018	0.000	0.007	-0.011	0.965	57.340	67.100	149.450	273.890	0.965	0.794	-0.626	0.070	0.004	0.003	0.012		
0.970	112.240	89.700	87.400	289.340	0.970	0.776	-0.639	0.018	0.000	0.007	-0.011	0.975	57.340	62.220	147.010	266.570	0.975	0.796	-0.626	0.069	0.003	0.003	0.012		
0.975	115.000	89.700	87.400	292.100	0.975	0.776	-0.640	0.017	0.000	0.009	-0.011	0.975	57.340	62.220	147.010	266.570	0.975	0.796	-0.626	0.069	0.003	0.003	0.012		
0.980	112.240	87.400	87.400	287.040	0.980	0.776	-0.640	0.017	-0.001	0.009	-0.011	0.980	57.340	62.220	147.010	266.570	0.980	0.797	-0.626	0.070	0.002	0.002	0.012		
0.985	112.240	89.700	87.400	289.340	0.985	0.776	-0.640	0.017	0.000	0.009	-0.011	0.985	54.900	62.220	147.010	264.130	0.985	0.797	-0.626	0.070	0.000	0.002	0.012		
0.990	112.240	89.700	87.400	289.340	0.990	0.778	-0.640	0.017	0.000	0.007	-0.012	0.990	59.780	62.220	147.010	269.010	0.990	0.796	-0.626	0.070	-0.001	0.002	0.012		
0.995	112.240	87.400	87.400	287.040	0.995	0.779	-0.640	0.017	0.001	0.007	-0.012	0.995	57.340	64.660	149.450	271.450	0.995	0.794	-0.625	0.071	-0.002	0.002	0.013		
1.000	112.240	87.400	87.400	287.040	1.000	0.780	-0.640	0.018	0.002	0.007	-0.013	1.000	57.340	62.220	149.450	269.010	1.000	0.792	-0.625	0.072	-0.003	0.001	0.013		
1.005	112.240	87.400	84.640	284.280	1.005	0.780	-0.640	0.018	0.002	0.007	-0.013	1.005	59.780	62.220	147.010	269.010	1.005	0.791	-0.625	0.072	-0.003	0.001	0.013		
1.010	112.240	87.400	84.640	284.280	1.010	0.780	-0.640	0.019	0.001	0.009	-0.012	1.010	57.340	62.220	147.010	266.570	1.010	0.791	-0.625	0.072	-0.003	0.001	0.013		
1.015	115.000	89.700	87.400	292.100	1.015	0.779	-0.640	0.019	0.001	0.009	-0.012	1.015	-1.000	-1.000	-1.000	0.000	1.015	-	-	-	-	-	-		
1.020	115.000	89.700	87.400	292.100	1.020	0.778	-0.639	0.020	0.000	0.010	-0.012	1.020	-1.000	-1.000	-1.000	0.000	1.020	-	-	-	-	-	-		
1.025	115.000	87.400	84.640	287.040	1.025	0.778	-0.638	0.021	-0.001	0.009	-0.012	1.025	-1.000	-1.000	-1.000	0.000	1.025	-	-	-	-	-	-		
1.030	112.240	87.400	87.400	287.040	1.030	0.777	-0.637	0.021	-0.001	0.009	-0.012	1.030	-1.000	-1.000	-1.000	0.000	1.030	-	-	-	-	-	-		
1.035	115.000	87.400	84.640	287.040	1.035	0.777	-0.637	0.021	-0.002	0.007	-0.012	1.035	-1.000	-1.000	-1.000	0.000	1.035	-	-	-	-	-	-		
1.040	115.000	87.400	87.400	289.800	1.040	0.777	-0.637	0.021	-0.002	0.005	-0.012	1.040	-1.000	-1.000	-1.000	0.000	1.040	-	-	-	-	-	-		
1.045	115.000	84.640	89.700	289.340	1.045	0.777	-0.637	0.021	-0.002	0.005	-0.012	1.045	-1.000	-1.000	-1.000	0.000	1.045	-	-	-	-	-	-		
1.050	115.000	87.400	84.640	287.040	1.050	0.777	-0.638	0.020	-0.003	0.004	-0.012	1.050	-1.000	-1.000	-1.000	0.000	1.050	-	-	-	-	-	-		
1.055	115.000	87.400	87.400	289.800	1.055	0.777	-0.638	0.019	-0.003	0.005	-0.012	1.055	-1.000	-1.000	-1.000	0.000	1.055	-	-	-	-	-	-		
1.060	117.120	84.960	87.360	289.440	1.060	0.777	-0.639	0.018	-0.004	0.005	-0.013	1.060	-1.000	-1.000	-1.000	0.000	1.060	-	-	-	-	-	-		
1.065	114.720	87.360	87.360	289.440	1.065	0.777	-0.639	0.017	-0.004	0.006	-0.013	1.065	-1.000	-1.000	-1.000	0.000	1.065	-	-	-	-	-	-		
1.070	117.120	89.760	84.960	291.840	1.070	0.777	-0.639	0.017	-0.004	0.007	-0.014	1.070	57.230	64.900	147.500	269.630	1.070	0.791	-0.624	0.071	-0.003	0.000	0.013		
1.075	117.120	84.960	87.360	289.440	1.075	0.776	-0.639	0.017	-0.004	0.007	-0.014	1.075	57.230	64.900	147.500	269.630	1.075	0.792	-0.625	0.070	-0.002	0.000	0.013		
1.080	114.720	87.360	84.960	287.040	1.080	0.776	-0.639	0.017	-0.003	0.007	-0.015	1.080	57.230	64.900	147.500	269.630	1.080	0.792	-0.625	0.070	-0.001	0.000	0.013		
1.085	114.720	87.360	87.360	289.440	1.085	0.777	-0.639	0.017	-0.003	0.007	-0.015	1.085	57.230	61.950	144.550	263.730	1.085	0.792	-0.626	0.069	0.000	0.000	0.014		
1.090	117.120	87.360	87.360	291.840	1.090	0.778	-0.639	0.017	-0.003	0.007	-0.015	1.090	57.230	61.950	147.500	266.680	1.090	0.792	-0.627	0.069	0.001	-0.001	0.014		
1.095	120.000	89.760	84.960	294.720	1.095	0.777	-0.639	0.017	-0.002	0.007	-0.015	1.095	57.230	61.950	147.500	266.680	1.095	0.792	-0.628	0.069	0.002	-0.001	0.014		
1.100	120.000	87.360	87.360	294.720	1.100	0.777	-0.639	0.017	-0.002	0.007	-0.015	1.100	57.230	61.950	144.550	263.730	1.100	0.792	-0.628	0.070	0.002	-0.001	0.013		
1.105	117.120	87.360	87.360	291.840	1.105	0.776	-0.639	0.018	-0.001	0.005	-0.015	1.105	54.870	61.950	147.500	264.320	1.105	0.792	-0.628	0.071	0.002	-0.001	0.013		
1.110	120.000	87.360	87.360	294.720	1.110	0.776	-0.638	0.019	0.000	0.004	-0.015	1.110	57.230	61.950	144.550	263.730	1.110	0.792	-0.627	0.071	0.001	0.000	0.012		
1.115	119.560	87.220	84.770	291.550	1.115	0.777	-0.637	0.019	0.001	0.003	-0.015	1.115	57.230	61.950	147.500	266.680	1.115	0.792	-0.626	0.072	0.000	0.001	0.012		
1.120	117.110	87.220	84.770	289.100	1.120	0.778	-0.636	0.019	0.001	0.002	-0.015	1.120	57.230	61.950	144.550	263.730	1.120	0.792	-0.625	0.072	-0.001	0.001	0.012		
1.125	119.560	87.220	84.770	291.550	1.125	0.780	-0.635	0.020	0.001	0.001	-0.015	1.125	54.720	59.850	142.500	257.070	1.125	0.792	-0.623	0.071	-0.004	0.007	0.010		
1.130	119.560	87.220	87.220	294.000	1.130	0.781	-0.635	0.019	0.000	0.001	-0.015	1.130	54.720	59.850	139.650	254.220	1.130	0.792	-0.623	0.072	-0.003	0.007	0.010		
1.135	119.560	87.220	87.220	294.000	1.135	0.781	-0.636	0.019	-0.002	0.001	-0.015	1.135	54.720	57.000	142.500	254.220	1.135	0.793	-0.624	0.072	-0.002	0.007	0.010		
1.140	122.500	87.220	87.220	296.940	1.140	0.780	-0.638	0.019	-0.004	0.003	-0.015	1.140	54.720	62.130	139.650	256.500	1.140	0.793	-0.625	0.072	-0.001	0.007	0.010		
1.145	122.500	89.670	89.670	301.840	1.145	0.779	-0.641	0.018	-0.005	0.004	-0.015	1.145	54.720	62.130	142.500	259.350	1.145	0.792	-0.626	0.072	-0.001	0.006	0.010		
1.150	122.500	89.670	92.120	304.290	1.150	0.778	-0.644	0.018	-0.006	0.005	-0.015	1.150	54.720	59.850	142.500	257.070	1.150	0.791	-0.627	0.072	-0.001	0.006	0.010		
1.155	122.500	89.670	87.220	299.390	1.155	0.777	-0.646	0.018	-0.005	0.005	-0.015	1.155	54.720	59.850	142.500	257.070	1.155	0.789	-0.627	0.072	-0.003	0.006	0.011		
1.160	122.500	87.220	89.670	299.390	1.160	0.776	-0.647	0.017	-0.002	0.003	-0.015	1.160	54.720	57.000	142.500	254.220	1.160	0.789	-0.628	0.072	-0.005	0.006	0.011		
1.165	119.560	87.220	89.670	296.450	1.165	0.776	-0.646	0.017	0.002	0.001	-0.015	1.170	54.720	59.850	142.500	257.070	1.170	0.790	-0.628	0.071	-0.007	0.006	0.011		
1.170	122.500	87.500	87.500	297.500	1.170	0.777	-0.643	0.017	0.006	-0.003	-0.015	1.170	54.720	59.850	142.500	257.070	1.170	0.790	-0.628	0.071	-0.007	0.006	0.011		
1.175	122.500	87.500	87.500	297.500	1.175	0.779	-0.639	0.018	0.012	-0.007	-0.015	1.175	54.720	59.850	139.650	254.220	1.175	0.791	-0.627	0.071	-0.010	0.006	0.011		
1.180	120.000	87.500	90.000	297.500	1.180	0.781	-0.635	0.018	0.015	-0.011	-0.016	1.180	54.720	57.000	139.650	251.370	1.180	0.792	-0.627	0.071	-0.011	0.006	0.010		
1.185	125.000	87.500	87.500	300.000	1.185	0.782	-0.632	0.019	0.017	-0.013	-0.015	1.185	-1.000	-1.000	-1.000	0.000	1.185	-	-	-	-	-	-		
1.190	122.500	87.500	90.000	300.000	1.190	0.784	-0.630	0.019	0.017	-0.014	-0.015	1.190	-1.000	-1.000	-1.000	0.000	1.190	-	-	-	-	-	-		
1.195	122.500	87.500	90.000	300.000	1.195	0.784	-0.628	0.019	0.014	-0.012	-0.014	1.195	-1.000	-1.000	-1.000	0.000	1.195	-	-	-	-	-	-		
1.200	122.500	87.500	87.500	297.500	1.200	0.784	-0.629	0.018	0.011	-0.009	-0.013	1.200	-1.000	-1.000	-1.000	0.000	1.200	-	-	-	-	-	-		
1.205	122.500	87.500	90.000	300.000	1.205	0.784	-0.630	0.018	0.006	-0.005	-0.013	1.205	-1.000	-1.000	-1.000	0.000	1.205	-	-	-	-	-	-		
1.210	122.500	87.500	92.500	302.500	1.210	0.784	-0.631	0.018	0.003	-0.002	-0.012	1.210	-1.000	-1.000	-1.000	0.000	1.210	-	-	-	-	-	-		
1.215	125.000	90.000	90.000	305.000	1.215	0.783	-0.632	0.018	0.000	0.001	-0.012	1.215	-1.000	-1.000	-1.000	0.000	1.215	-	-	-	-	-	-		
1.220	122.500	85.000	90.000	297.500	1.220	0.783	-0.633	0.017	-0.002	0.004	-0.012	1.220	-1.000	-1.000	-1.000	0.000	1.220	-	-	-	-	-	-		
1.225	125.000	85.000	90.000	300.000	1.225	0.782	-0.640	0.018	-0.001	0.009	-0.009	1.225	-1.000	-1.000	-1.000	0.000	1.225	-	-	-	-	-	-		
1.230	122.500	90.000	92.500	305.000	1.230	0.781	-0.639	0.018	0.000	0.009	-0.010	1.230	-1.000	-1.000	-1.000	0.000	1.230	-	-	-	-	-	-		
1.235	122.500	87.500	90.000	300.000	1.235	0.780	-0.637	0.017	0.002	0.007	-0.010	1.235	-1.000	-1.000	-1.000	0.000	1.235	-	-	-	-	-	-		
1.240	122.500	85.000	90.000	297.500	1.240	0.780	-0.635	0.017	0.003	0.007	-0.010	1.240	54.720	59.850	142.500	257.070	1.240	0.792	-0.626	0.071	-0.011	0.005	0.010		
1.245	122.500	85.000	92.500	300.000	1.245	0.780	-0.634	0.017	0.004	0.006	-0.009	1.245	54.720	59.850	139.650	254.220	1.245	0.792	-0.625	0.071	-0.009	0.004	0.009		
1.250	125.000	85.000	90.000	300.000	1.250	0.781	-0.634	0.017	0.005	0.006	-0.009	1.250	54.720	57.000	139.650	251.370	1.250	0.792	-0.625	0.070	-0.005	0.002	0.009		
1.255	125.000	87.500	90.000	302.500	1.255	0.781	-0.634	0.017	0.005	0.006	-0.007	1.255	54.720	59.850	139.650	254.220	1.255	0.790	-0.625	0.070	-0.002	0.000	0.009		
1.260	125.000	87.500	90.000	302.500	1.260	0.782	-0.633	0.018	0.005	0.006	-0.007	1.260	54.720	59.850	142.500	257.070	1.260	0.789	-0.627	0.069	0.001	-0.001	0.009		
1.265	122.500	87.500	87.500	297.500	1.265	0.783	-0.633	0.019	0.005	0.006	-0.006	1.265	54.720	62.130	142.500	259.350	1.265	0.788	-0.628	0.068	0.003	-0.002	0.009		
1.270	122.500	87.500	90.000	300.000	1.270	0.783	-0.632	0.020	0.005	0.006	-0.005	1.270	54.720	62.130	142.500	259.350	1.270	0.788	-0.630	0.068	0.003	-0.002	0.009		
1.275	122.500	85.000	90.000	297.500	1.275	0.783	-0.633	0.020	0.004	0.006	-0.005	1.275	54.720	59.850	139.650	254.220	1.275	0.788	-0.631	0.069	0.003	-0.001	0.009		
1.285	-1.000	-1.000	-1.000	0.000	1.285	-	-	-	-	-	-	1.280	54.720	62.130	139.650	256.500	1.280	0.788	-0.631	0.069	0.001	0.000	0.009		
1.285	-1.000	-1.000	-1.000	0.000	1.285	-	-	-	-	-	-	1.285	54.720	62.130	142.500	259.350	1.285	0.789	-0.630	0.070	-0.001	0.002	0.007		
1.290	-1.000	-1.000	-1.000	0.000	1.290	-	-	-	-	-	-	1.290	54.720	59.850	137.370	251.940	1.290	0.790	-0.630	0.071	-0.003	0.003	0.006		
1.295	-1.000	-1.000	-1.000	0.000	1.295	-	-	-	-	-	-	1.295	54.720	62.130	142.500	259.350	1.295	0.792	-0.629	0.071	-0.004	0.003	0.004		
1.300	-1.000	-1.000	-1.000	0.000	1.300	-	-	-	-	-	-	1.300	54.720	62.130	142.500	259.350	1.300	0.793	-0.628	0.072	-0.004	0.003	0.003		
1.305	-1.000	-1.000	-1.000	0.000	1.305	-	-	-	-	-	-	1.305	54.720	59.850	142.500	257.070	1.305	0.793	-0.627	0.072	-0.003	0.002	0.003		
1.310	-1.000	-1.000	-1.000	0.000	1.310	-	-	-	-	-	-	1.310	52.440	59.850	139.650	251.940	1.310	0.794	-0.627	0.072	-0.001	0.000	0.002		
1.315	-1.000	-1.000	-1.000	0.000	1.315	-	-	-	-	-	-	1.315	54.720	59.850	139.650	254.220	1.315	0.793	-0.627	0.072	0.000	-0.002	0.002		
1.320	-1.000	-1.000	-1.000	0.000	1.320	-	-	-	-	-	-	1.320	54.720	59.850	139.650	254.220	1.320	0.793	-0.627	0.071	0.002	-0.004	0.003		
1.325	-1.000	-1.000	-1.000	0.000	1.325	-	-	-	-	-	-	1.325	54.720	62.130	139.650	256.500	1.325	0.792	-0.627	0.070	0.002	-0.005	0.003		
1.330	-1.000	-1.000	-1.000	0.000	1.330	-	-	-	-	-	-	1.330	54.720	59.850	139.650	254.220	1.330	0.790	-0.627	0.069	0.001	-0.005	0.003		
1.335	-1.000	-1.000	-1.000	0.000	1.335	-	-	-	-	-	-	1.335	54.720	59.850	139.650	254.220	1.335	0.789	-0.627	0.069	0.000	-0.005	0.004		
1.340	125.000	87.500	90.000	302.500	1.340	0.782	-0.633	0.020	0.004	0.006	-0.004	1.340	54.720	59.850	142.500	257.070	1.340	0.789	-0.627	0.069	-0.001	-0.004	0.004		
1.345	122.500	87.500	87.500	297.500	1.345	0.781	-0.634	0.020	0.003	0.005	-0.004	1.345	54.720	59.850	139.650	254.220	1.345	0.789	-0.627	0.069	-0.002	-0.003	0.004		
1.350	125.000	87.500	90.000	302.500	1.350	0.780	-0.634	0.020	0.003	0.005	-0.003	1.350	57.420	59.740	142.100	259.260	1.350	0.789	-0.626	0.068	-0.002	-0.002	0.004		
1.355	125.000	87.500	92.500	305.000	1.355	0.780	-0.634	0.020	0.003	0.004	-0.003	1.355	54.520	59.740	139.780	254.040	1.355	0.789	-0.626	0.068	-0.002	-0.002	0.004		
1.360	122.500	87.500	90.000	300.000	1.360	0.780	-0.634	0.020	0.003	0.003	-0.003	1.365	57.420	62.060	145.000	264.480	1.365	0.789	-0.626	0.068	-0.001	-0.001	0.004		
1.365	122.500	85.000	90.000	297.500	1.365	0.780	-0.633	0.020	0.003	0.003	-0.003	1.365	57.420	62.060	145.000	264.480	1.365	0.789	-0.626	0.068	-0.001	-0.001	0.004		
1.370	122.500	87.500	90.000	300.000	1.370	0.781	-0.634	0.020	0.002	0.002	-0.003	1.370	54.520	59.740	139.780	254.040	1.370	0.788	-0.626	0.068	0.001	-0.001	0.004		
1.375	125.000	87.500	90.000	302.500	1.375	0.781	-0.634	0.020	0.001	0.002	-0.003	1.375	54.520	59.740	139.780	254.040	1.375	0.788	-0.627	0.068	0.003	-0.001	0.004		
1.380	125.000	87.500	90.000	302.500	1.380	0.782	-0.634	0.020	0.000	0.003	-0.002	1.380	54.520	59.740	142.100	256.360	1.380	0.788	-0.627	0.068	0.004	0.000	0.004		
1.385	122.500	85.000	90.000	297.500	1.385	0.782	-0.635	0.020	-0.002	0.003	-0.002	1.385	57.420	62.060	142.100	261.580	1.385	0.789	-0.627	0.068	0.004	0.002	0.004		
1.390	122.500	87.500	87.500	297.500	1.390	0.782	-0.635	0.020	-0.004	0.004	-0.001	1.390	54.520	62.060	142.100	258.680	1.390	0.791	-0.626	0.068	0.004	0.003	0.005		
1.395	122.500	85.000	90.000	297.500	1.395	0.781	-0.636	0.020	-0.005	0.005	-0.001	1.395	54.520	59.740	139.780	254.040	1.395	0.792	-0.626	0.068	0.003	0.005	0.005		
1.400	122.500	85.000	87.500	295.000	1.400	0.780	-0.637	0.020	-0.007	0.005	-0.002	1.400	54.520	59.740	139.780	254.040	1.400	0.792	-0.626	0.069	0.003	0.007	0.005		
1.405	122.500	87.500	90.000	300.000	1.405	0.779	-0.637	0.020	-0.007	0.005	-0.002	1.405	54.520	59.740	139.780	254.040	1.405	0.792	-0.626	0.070	0.003	0.009	0.005		
1.410	120.000	85.000	90.000	295.000	1.410	0.779	-0.637	0.019	-0.007	0.004	-0.003	1.410	57.420	62.060	142.100	261.580	1.410	0.792	-0.627	0.072	0.004	0.009	0.005		
1.415	122.500	87.500	90.000	300.000	1.415	0.780	-0.636	0.019	-0.005	0.003	-0.003	1.415	57.420	62.060	139.780	259.260	1.415	0.791	-0.628	0.072	0.004	0.007	0.004		
1.420	122.500	87.500	90.000	300.000	1.420	0.781	-0.636	0.018	-0.004	0.002	-0.003	1.420	54.520	62.060	142.100	258.680	1.420	0.791	-0.628	0.073	0.005	0.007	0.004		
1.425	125.000	87.500	90.000	302.500	1.425	0.781	-0.635	0.018	-0.003	0.001	-0.003	1.425	57.420	59.740	142.100	259.260	1.425	0.791	-0.629	0.073	0.005	0.006	0.004		
1.430	120.000	87.500	90.000	297.500	1.430	0.782	-0.634	0.018	-0.002	0.000	-0.003	1.430	57.420	59.740	139.780	256.940	1.430	0.791	-0.629	0.073	0.004	0.006	0.004		
1.435	120.000	87.500	90.000	297.500	1.435	0.782	-0.634	0.018	-0.001	0.000	-0.002	1.435	57.420	59.740	139.780	256.940	1.435	0.790	-0.629	0.073	0.004	0.006	0.004		
1.440	120.000	87.500	90.000	297.500	1.440	0.781	-0.635	0.018	-0.001	-0.001	-0.002	1.440	57.420	57.420	139.780	254.620	1.440	0.789	-0.630	0.073	0.003	0.006	0.004		
1.445	122.500	85.000	90.000	297.500	1.445	0.781	-0.635	0.018	-0.002	-0.001	-0.002	1.445	54.520	59.740	142.100	256.360	1.445	0.788	-0.630	0.072	0.002	0.006	0.003		
1.450	119.560	87.220	89.670	296.450	1.450	0.780	-0.635	0.019	-0.002	-0.001	-0.002	1.450	57.420	62.060	145.000	264.480	1.450	0.787	-0.629	0.071	0.000	0.006	0.003		
1.455	122.500	87.220	89.670	299.390	1.455	0.780	-0.635	0.019	-0.002	0.000	-0.002	1.455	54.520	62.060	139.780	256.360	1.455	0.787	-0.628	0.070	-0.001	0.006	0.002		
1.460	122.500	87.220	89.670	299.390	1.460	0.779	-0.636	0.019	-0.003	0.000	-0.002	1.460	57.420	62.060	139.780	259.260	1.460	0.788	-0.627	0.070	-0.002	0.005	0.002		
1.465	122.500	84.770	89.670	296.940	1.465	0.779	-0.636	0.019	-0.003	0.000	-0.002	1.465	57.000	62.130	142.500	261.630	1.465	0.790	-0.626	0.070	-0.001	0.005	0.002		
1.470	119.560	87.220	89.670	296.450	1.470	0.779	-0.636	0.018	-0.003	0.001	-0.002	1.470	54.720	62.130	142.500	259.350	1.470	0.791	-0.625	0.070	0.000	0.004	0.002		
1.475	122.500	87.220	89.670	299.390	1.475	0.779	-0.637	0.018	-0.004	0.001	-0.002	1.475	54.720	59.850	142.500	257.070	1.475	0.792	-0.625	0.071	0.002	0.004	0.002		
1.480	122.500	84.770	89.670	296.940	1.480	0.780	-0.636	0.018	-0.004	0.001	-0.002	1.480	54.720	62.130	139.650	256.500	1.480	0.791	-0.626	0.071	0.004	0.003	0.002		
1.485	122.500	87.220	89.670	299.390	1.485	0.780	-0.636	0.018	-0.004	0.002	-0.003	1.485	54.720	59.850	139.650	254.220	1.485	0.791	-0.626	0.071	0.006	0.002	0.002		
1.490	122.500	84.770	92.120	299.390	1.490	0.781	-0.635	0.018	-0.004	0.002	-0.003	1.490	57.000	62.130	142.500	261.630	1.490	0.790	-0.627	0.071	0.007	0.002	0.003		
1.495	119.560	87.220	89.670	296.450	1.495	0.782	-0.635	0.018	-0.004	0.002	-0.004	1.495	57.000	62.130	139.650	258.780	1.495	0.790	-0.627	0.070	0.006	0.003	0.003		
1.500	122.500	89.670	89.670	301.840	1.500	0.782	-0.635	0.019	-0.004	0.003	-0.004	1.500	54.720	59.850	142.500	257.070	1.500	0.790	-0.627	0.070	0.005	0.004	0.003		
1.505	120.000	87.360	89.760	297.120	1.505	0.781	-0.633	0.018	-0.002	-0.003	-0.002	1.505	57.000	62.130	142.500	261.630	1.505	0.790	-0.628	0.069	0.003	0.005	0.003		
1.510	117.120	87.360	89.760	294.240	1.510	0.781	-0.633	0.019	-0.003	-0.003	-0.001	1.510	54.720	62.130	139.650	256.500	1.510	0.790	-0.628	0.069	0.002	0.006	0.003		
1.515	117.120	87.360	89.760	294.240	1.515	0.781	-0.634	0.019	-0.004	-0.003	-0.001	1.515	54.720	59.850	139.650	254.220	1.515	0.790	-0.628	0.070	0.001	0.009	0.003		
1.520	117.120	89.760	89.760	296.640	1.520	0.780	-0.634	0.019	-0.004	-0.003	-0.001	1.520	54.880	62.160	137.200	254.240	1.520	0.791	-0.628	0.070	0.001	0.009	0.003		
1.525	120.000	89.760	89.760	299.520	1.525	0.780	-0.635	0.019	-0.004	-0.004	-0.001	1.525	57.120	59.920	140.000	257.040	1.525	0.791	-0.628	0.070	0.002	0.009	0.003		
1.530	120.000	89.760	89.760	299.520	1.530	0.780	-0.635	0.019	-0.004	-0.005	-0.001	1.530	57.120	59.920	140.000	257.040	1.530	0.791	-0.628	0.070	0.003	0.009	0.003		
1.535	117.120	89.760	89.760	296.640	1.535	0.780	-0.635	0.019	-0.003	-0.006	-0.001	1.535	57.120	62.160	140.000	259.280	1.535	0.791	-0.628	0.070	0.005	0.007	0.003		
1.540	120.000	89.760	92.160	301.920	1.540	0.780	-0.635	0.019	-0.002	-0.009	0.000	1.540	57.120	59.920	140.000	257.040	1.540	0.790	-0.628	0.070	0.007	0.006	0.004		
1.545	117.120	87.360	89.760	294.240	1.545	0.780	-0.635	0.019	-0.001	-0.010	0.001	1.545	57.120	62.160	137.200	256.480	1.545	0.790	-0.628	0.070	0.010	0.005	0.004		
1.550	120.000	89.760	92.160	301.920	1.550	0.780	-0.636	0.018	-0.001	-0.011	0.001	1.550	57.120	62.160	140.000	259.280	1.550	0.790	-0.628	0.070	0.012	0.004	0.004		
1.555	120.000	89.760	92.160	301.920	1.555	0.780	-0.636	0.018	-0.001	-0.011	0.002	1.560	57.120	64.960	140.000	262.080	1.560	0.791	-0.628	0.071	0.012	0.004	0.004		
1.560	-1.000	-1.000	-1.000	0.000	1.560	-	-	-	-	-	-	1.560	57.120	64.960	140.000	262.080	1.560	0.791	-0.628	0.071	0.012	0.004	0.004		
1.565	-1.000	-1.000	-1.000	0.000	1.565	-	-	-	-	-	-	1.565	57.120	62.160	137.200	256.480	1.565	0.791	-0.627	0.072	0.011	0.004	0.003		
1.570	-1.000	-1.000	-1.000	0.000	1.570	-	-	-	-	-	-	1.570	57.120	62.160	140.000	259.280	1.570	0.791	-0.626	0.074	0.010	0.005	0.003		
1.575	-1.000	-1.000	-1.000	0.000	1.575	-	-	-	-	-	-	1.575	57.120	64.960	140.000	262.080	1.575	0.790	-0.626	0.075	0.009	0.005	0.002		
1.580	-1.000	-1.000	-1.000	0.000	1.580	-	-	-	-	-	-	1.580	59.920	64.960	137.200	262.080	1.580	0.790	-0.627	0.070	0.011	0.001	0.002		
1.585	-1.000	-1.000	-1.000	0.000	1.585	-	-	-	-	-	-	1.585	59.920	64.960	140.000	264.880	1.585	0.790	-0.627	0.070	0.012	0.001	0.002		
1.590	-1.000	-1.000	-1.000	0.000	1.590	-	-	-	-	-	-	1.590	59.920	64.960	137.200	262.080	1.590	0.789	-0.628	0.071	0.014	0.002	0.002		
1.595	-1.000	-1.000	-1.000	0.000	1.595	-	-	-	-	-	-	1.595	59.920	64.960	137.200	262.080	1.595	0.789	-0.628	0.072	0.015	0.002	0.003		
1.605	-1.000	-1.000	-1.000	0.000	1.605	-	-	-	-	-	-	1.600	59.920	64.960	137.200	262.080	1.600	0.788	-0.628	0.073	0.015	0.001	0.003		
1.605	-1.000	-1.000	-1.000	0.000	1.605	-	-	-	-	-	-	1.605	59.920	62.160	140.000	262.080	1.605	0.788	-0.629	0.073	0.015	0.002	0.003		
1.610	-1.000	-1.000	-1.000	0.000	1.610	-	-	-	-	-	-	1.610	59.920	64.960	137.200	262.080	1.610	0.788	-0.629	0.074	0.013	0.002	0.003		
1.615	-1.000	-1.000	-1.000	0.000	1.615	-	-	-	-	-	-	1.615	59.920	64.960	137.200	262.080	1.615	0.789	-0.629	0.074	0.011	0.003	0.003		
1.620	117.500	89.770	89.770	297.040	1.620	0.780	-0.637	0.017	-0.002	-0.010	0.002	1.620	59.920	64.960	137.200	262.080	1.620	0.790	-0.629	0.075	0.010	0.003	0.003		
1.625	114.680	92.120	92.120	298.920	1.625	0.780	-0.637	0.017	-0.002	-0.009	0.002	1.625	59.920	67.200	137.200	264.320	1.625	0.791	-0.630	0.076	0.009	0.003	0.003		
1.630	117.500	89.770	92.120	299.390	1.630	0.780	-0.637	0.017	-0.002	-0.009	0.002	1.630	59.920	64.960	134.960	259.840	1.630	0.790	-0.630	0.076	0.007	0.003	0.003		
1.635	114.680	89.770	92.120	296.570	1.635	0.780	-0.636	0.017	-0.001	-0.009	0.001	1.635	-1.000	-1.000	-1.000	0.000	1.635	-	-	-	-	-	-		
1.640	114.680	87.420	92.120	294.220	1.640	0.781	-0.635	0.017	0.000	-0.010	0.001	1.640	-1.000	-1.000	-1.000	0.000	1.640	-	-	-	-	-	-		
1.645	112.330	87.420	89.770	289.520	1.645	0.781	-0.634	0.017	0.000	-0.010	0.001	1.645	-1.000	-1.000	-1.000	0.000	1.645	-	-	-	-	-	-		
1.650	114.680	89.770	92.120	296.570	1.650	0.781	-0.634	0.017	0.000	-0.010	0.002	1.650	-1.000	-1.000	-1.000	0.000	1.650	-	-	-	-	-	-		
1.655	114.680	89.770	92.120	296.570	1.655	0.781	-0.633	0.017	0.000	-0.010	0.003	1.655	-1.000	-1.000	-1.000	0.000	1.655	-	-	-	-	-	-		
1.660	117.500	89.770	92.120	299.390	1.660	0.781	-0.634	0.016	-0.001	-0.009	0.003	1.660	-1.000	-1.000	-1.000	0.000	1.660	-	-	-	-	-	-		
1.665	117.500	87.420	92.120	297.040	1.665	0.780	-0.634	0.016	-0.002	-0.009	0.004	1.665	-1.000	-1.000	-1.000	0.000	1.665	-	-	-	-	-	-		
1.670	114.680	89.770	92.120	296.570	1.670	0.778	-0.635	0.016	-0.002	-0.009	0.004	1.670	-1.000	-1.000	-1.000	0.000	1.670	-	-	-	-	-	-		
1.675	115.000	89.700	89.700	294.400	1.675	0.778	-0.636	0.016	-0.002	-0.010	0.004	1.675	-1.000	-1.000	-1.000	0.000	1.675	-	-	-	-	-	-		
1.680	115.000	92.460	92.460	299.920	1.680	0.779	-0.637	0.016	-0.001	-0.011	0.003	1.680	-1.000	-1.000	-1.000	0.000	1.680	-	-	-	-	-	-		
1.685	115.000	87.400	92.460	294.860	1.685	0.780	-0.637	0.017	0.000	-0.012	0.003	1.685	-1.000	-1.000	-1.000	0.000	1.685	-	-	-	-	-	-		
1.690	112.240	92.460	92.460	297.160	1.690	0.782	-0.637	0.017	0.000	-0.012	0.002	1.690	62.150	67.100	137.500	266.750	1.690	0.789	-0.631	0.075	0.007	0.003	0.003		
1.695	115.000	87.400	92.460	294.860	1.695	0.783	-0.637	0.017	0.001	-0.013	0.002	1.695	59.950	64.900	137.500	262.350	1.695	0.788	-0.630	0.074	0.007	0.002	0.002		
1.700	115.000	89.700	92.460	297.160	1.700	0.784	-0.636	0.017	0.001	-0.012	0.002	1.700	62.150	64.900	134.750	261.800	1.700	0.788	-0.630	0.073	0.006	0.003	0.001		
1.705	115.000	89.700	92.460	297.160	1.705	0.784	-0.635	0.017	0.000	-0.011	0.002	1.705	62.150	67.100	137.500	266.750	1.705	0.788	-0.629	0.072	0.005	0.003	0.000		
1.710	112.240	89.700	94.760	296.700	1.710	0.784	-0.634	0.018	0.000	-0.010	0.003	1.710	59.950	64.900	137.500	262.350	1.710	0.789	-0.629	0.071	0.005	0.004	0.000		
1.715	112.240	92.460	94.760	299.460	1.715	0.784	-0.634	0.018	-0.001	-0.009	0.003	1.715	59.950	67.100	137.500	264.550	1.715	0.790	-0.628	0.071	0.005	0.005	-0.001		
1.720	112.240	89.700	92.460	294.400	1.720	0.783	-0.634	0.019	-0.002	-0.007	0.003	1.720	62.150	67.100	134.750	264.000	1.720	0.790	-0.627	0.072	0.006	0.005	-0.001		
1.725	112.240	89.700	92.460	294.400	1.725	0.783	-0.635	0.019	-0.002	-0.007	0.004	1.725	59.950	67.100	134.750	261.800	1.725	0.790	-0.627	0.073	0.007	0.004	-0.001		
1.730	115.000	92.460	92.460	299.920	1.730	0.782	-0.636	0.019	-0.002	-0.007	0.004	1.730	62.150	67.100	134.750	264.000	1.730	0.790	-0.627	0.073	0.010	0.003	-0.001		
1.735	112.240	89.700	89.700	291.640	1.735	0.782	-0.636	0.019	-0.002	-0.009	0.004	1.735	62.150	64.900	134.750	261.800	1.735	0.790	-0.626	0.073	0.012	0.002	0.000		
1.740	115.000	92.460	92.460	299.920	1.740	0.782	-0.636	0.018	-0.002	-0.010	0.005	1.740	62.150	64.900	134.750	261.800	1.740	0.791	-0.626	0.073	0.012	0.002	0.000		
1.745	112.240	92.460	92.460	297.160	1.745	0.781	-0.636	0.017	-0.002	-0.010	0.005	1.745	62.150	67.100	137.500	266.750	1.745	0.791	-0.626	0.072	0.013	0.001	0.001		
1.750	112.240	89.700	92.460	294.400	1.750	0.780	-0.636	0.016	-0.002	-0.011	0.005	1.755	62.150	67.100	137.500	266.750	1.755	0.791	-0.627	0.072	0.012	0.001	0.001		
1.755	112.240	89.700	94.760	296.700	1.755	0.779	-0.636	0.015	-0.002	-0.011	0.005	1.755	62.150	67.100	137.500	266.750	1.755	0.791	-0.627	0.072	0.012	0.001	0.001		
1.760	112.240	92.460	92.460	297.160	1.760	0.777	-0.637	0.015	-0.003	-0.011	0.004	1.760	62.150	64.900	134.750	261.800	1.760	0.790	-0.628	0.072	0.012	0.002	0.001		
1.765	112.240	89.700	92.460	294.400	1.765	0.776	-0.638	0.014	-0.004	-0.010	0.004	1.765	62.150	67.100	134.750	264.000	1.765	0.789	-0.628	0.071	0.012	0.002	0.002		
1.770	112.240	92.460	94.760	299.460	1.770	0.776	-0.638	0.015	-0.004	-0.009	0.003	1.770	62.150	67.100	134.750	264.000	1.770	0.789	-0.629	0.071	0.012	0.003	0.002		
1.775	109.940	89.700	92.460	292.100	1.775	0.777	-0.638	0.015	-0.004	-0.009	0.002	1.775	62.150	67.100	134.750	264.000	1.775	0.788	-0.629	0.072	0.011	0.003	0.002		
1.780	112.240	89.700	92.460	294.400	1.780	0.779	-0.636	0.016	-0.004	-0.007	0.002	1.780	64.900	67.100	137.500	269.500	1.780	0.788	-0.629	0.072	0.010	0.003	0.002		
1.785	112.240	89.700	92.460	294.400	1.785	0.781	-0.634	0.016	-0.003	-0.007	0.002	1.785	62.150	69.850	134.750	266.750	1.785	0.788	-0.628	0.073	0.010	0.004	0.002		
1.790	112.240	92.460	92.460	297.160	1.790	0.782	-0.633	0.017	-0.004	-0.007	0.002	1.790	62.150	67.100	132.000	261.250	1.790	0.788	-0.628	0.074	0.009	0.004	0.001		
1.795	112.240	89.700	94.760	296.700	1.795	0.782	-0.632	0.017	-0.004	-0.006	0.002	1.795	62.150	67.100	132.000	261.250	1.795	0.787	-0.628	0.074	0.009	0.005	0.000		
1.800	112.240	92.460	92.460	297.160	1.800	0.782	-0.632	0.017	-0.004	-0.006	0.002	1.800	62.150	64.900	132.000	259.050	1.800	0.788	-0.627	0.074	0.007	0.006	-0.001		
1.805	109.940	92.460	94.760	297.160	1.805	0.783	-0.632	0.017	-0.005	-0.005	0.003	1.805	62.010	69.960	132.500	264.470	1.805	0.790	-0.627	0.073	0.004	0.007	-0.001		
1.810	115.000	92.460	94.760	302.220	1.810	0.783	-0.633	0.017	-0.004	-0.005	0.004	1.810	64.660	67.310	132.500	264.470	1.810	0.792	-0.628	0.073	0.005	0.007	-0.001		
1.815	112.240	89.700	92.460	294.400	1.815	0.783	-0.634	0.017	-0.004	-0.006	0.005	1.815	62.010	69.960	132.500	264.470	1.815	0.792	-0.628	0.073	0.009	0.006	-0.001		
1.820	112.240	92.460	92.460	297.160	1.820	0.783	-0.635	0.017	-0.003	-0.007	0.006	1.820	62.010	69.960	132.500	264.470	1.820	0.792	-0.628	0.073	0.011	0.005	0.000		
1.825	112.240	92.460	92.460	297.160	1.825	0.783	-0.635	0.017	-0.003	-0.007	0.006	1.825	64.660	67.310	132.500	264.470	1.825	0.790	-0.628	0.073	0.013	0.005	0.000		
1.830	109.940	92.460	92.460	294.860	1.830	0.782	-0.636	0.016	-0.003	-0.007	0.006	1.830	64.660	69.960	132.500	267.120	1.830	0.788	-0.628	0.072	0.014	0.005	-0.001		
1.835	109.940	89.700	92.460	292.100	1.835	0.782	-0.637	0.015	-0.004	-0.007	0.006	1.835	64.660	67.310	129.850	261.820	1.835	0.786	-0.627	0.072	0.014	0.006	-0.001		
1.840	109.800	92.250	92.250	294.300	1.840	0.781	-0.637	0.014	-0.005	-0.007	0.006	1.840	64.660	69.960	132.500	267.120	1.840	0.785	-0.627	0.072	0.014	0.009	-0.002		
1.845	109.800	92.250	92.250	294.300	1.845	0.780	-0.638	0.014	-0.006	-0.006	0.006	1.845	62.010	69.960	132.500	264.470	1.845	0.785	-0.627	0.073	0.013	0.011	-0.002		
1.850	109.800	90.000	92.250	292.050	1.850	0.780	-0.638	0.014	-0.007	-0.005	0.005	1.850	62.010	69.960	129.850	261.820	1.850	0.787	-0.627	0.074	0.011	0.013	-0.003		
1.855	109.800	94.950	92.250	297.000	1.855	0.780	-0.639	0.014	-0.007	-0.005	0.004	1.855	62.010	69.960	132.500	264.470	1.855	0.789	-0.627	0.075	0.010	0.015	-0.003		
1.860	109.800	90.000	92.250	292.050	1.860	0.780	-0.638	0.014	-0.007	-0.004	0.004	1.860	-1.000	-1.000	-1.000	0.000	1.860	-	-	-	-	-	-		
1.865	109.800	92.250	92.250	294.300	1.865	0.780	-0.638	0.014	-0.007	-0.003	0.004	1.865	-1.000	-1.000	-1.000	0.000	1.865	-	-	-	-	-	-		
1.870	109.800	92.250	94.950	297.000	1.870	0.780	-0.637	0.014	-0.007	-0.003	0.004	1.870	-1.000	-1.000	-1.000	0.000	1.870	-	-	-	-	-	-		
1.875	109.800	92.250	92.250	294.300	1.875	0.781	-0.636	0.015	-0.009	-0.002	0.004	1.875	-1.000	-1.000	-1.000	0.000	1.875	-	-	-	-	-	-		
1.880	112.500	92.250	94.950	299.700	1.880	0.781	-0.636	0.014	-0.009	-0.002	0.004	1.880	-1.000	-1.000	-1.000	0.000	1.880	-	-	-	-	-	-		
1.885	109.800	92.250	92.250	294.300	1.885	0.781	-0.636	0.014	-0.010	-0.002	0.004	1.885	-1.000	-1.000	-1.000	0.000	1.885	-	-	-	-	-	-		
1.890	109.800	92.250	94.950	297.000	1.890	0.781	-0.635	0.014	-0.011	-0.002	0.003	1.890	-1.000	-1.000	-1.000	0.000	1.890	-	-	-	-	-	-		
1.895	112.500	92.250	94.950	299.700	1.895	0.781	-0.636	0.014	-0.011	-0.002	0.003	1.895	-1.000	-1.000	-1.000	0.000	1.895	-	-	-	-	-	-		
1.900	109.800	92.250	92.250	294.300	1.900	0.781	-0.636	0.014	-0.010	-0.002	0.002	1.900	-1.000	-1.000	-1.000	0.000	1.900	-	-	-	-	-	-		
1.905	109.800	92.250	92.250	294.300	1.905	0.781	-0.636	0.014	-0.010	-0.002	0.002	1.905	-1.000	-1.000	-1.000	0.000	1.905	-	-	-	-	-	-		
1.910	109.800	90.000	92.250	292.050	1.910	0.781	-0.637	0.014	-0.010	-0.001	0.002	1.910	-1.000	-1.000	-1.000	0.000	1.910	-	-	-	-	-	-		
1.915	109.800	92.250	94.950	297.000	1.915	0.781	-0.637	0.014	-0.009	-0.001	0.002	1.915	64.660	69.960	129.850	264.470	1.915	0.791	-0.627	0.075	0.010	0.015	-0.003		
1.920	107.100	92.250	94.950	294.300	1.920	0.781	-0.638	0.014	-0.009	-0.001	0.002	1.920	62.010	67.310	129.850	259.170	1.920	0.792	-0.627	0.076	0.011	0.015	-0.003		
1.930	107.100	92.250	94.950	294.300	1.930	0.780	-0.638	0.014	-0.007	0.000	0.002	1.925	62.010	69.960	132.500	264.470	1.925	0.792	-0.627	0.076	0.013	0.014	-0.003		
1.930	107.100	92.250	94.950	294.300	1.930	0.780	-0.638	0.014	-0.007	0.000	0.002	1.930	64.660	67.310	132.500	264.470	1.930	0.793	-0.627	0.077	0.015	0.012	-0.003		
1.935	109.800	92.250	92.250	294.300	1.935	0.779	-0.638	0.014	-0.006	-0.001	0.002	1.935	62.010	69.960	129.850	261.820	1.935	0.792	-0.626	0.078	0.016	0.010	-0.002		
1.940	107.100	92.250	94.950	294.300	1.940	0.779	-0.637	0.014	-0.005	-0.001	0.002	1.940	64.660	67.310	129.850	261.820	1.940	0.792	-0.627	0.079	0.016	0.007	-0.002		
1.945	109.800	94.950	94.950	299.700	1.945	0.779	-0.636	0.014	-0.004	-0.002	0.002	1.950	62.010	69.960	129.850	261.820	1.950	0.792	-0.626	0.080	0.015	0.006	-0.002		
1.950	107.100	92.250	94.950	294.300	1.950	0.780	-0.635	0.014	-0.003	-0.002	0.001	1.950	62.010	69.960	129.850	261.820	1.950	0.792	-0.626	0.080	0.015	0.006	-0.002		
1.955	107.360	92.400	94.600	294.360	1.955	0.780	-0.634	0.015	-0.003	-0.002	0.001	1.955	64.660	67.310	129.850	261.820	1.955	0.791	-0.626	0.080	0.013	0.006	-0.002		
1.960	107.360	92.400	94.600	294.360	1.960	0.779	-0.634	0.015	-0.004	-0.002	0.001	1.960	64.660	67.310	129.850	261.820	1.960	0.789	-0.626	0.080	0.010	0.006	-0.002		
1.965	107.360	94.600	94.600	296.560	1.965	0.779	-0.635	0.015	-0.006	-0.001	0.001	1.965	62.010	69.960	129.850	261.820	1.965	0.789	-0.626	0.079	0.006	0.007	-0.002		
1.970	107.360	94.600	94.600	296.560	1.970	0.778	-0.636	0.015	-0.007	0.000	0.001	1.970	64.660	69.960	132.500	267.120	1.970	0.788	-0.625	0.078	0.004	0.007	-0.001		
1.975	107.360	92.400	94.600	294.360	1.975	0.778	-0.637	0.014	-0.007	0.001	0.001	1.975	64.660	67.310	129.850	261.820	1.975	0.789	-0.625	0.078	0.002	0.009	-0.001		
1.980	110.000	94.600	97.240	301.840	1.980	0.778	-0.636	0.014	-0.007	0.001	0.002	1.980	64.660	69.960	127.200	261.820	1.980	0.790	-0.625	0.077	0.001	0.007	-0.001		
1.985	107.360	92.400	94.600	294.360	1.985	0.779	-0.636	0.014	-0.007	0.000	0.002	1.985	64.660	69.960	129.850	264.470	1.985	0.791	-0.626	0.077	0.002	0.006	-0.001		
1.990	107.360	94.600	94.600	296.560	1.990	0.780	-0.636	0.014	-0.006	-0.001	0.002	1.990	62.010	69.960	132.500	264.470	1.990	0.791	-0.627	0.076	0.004	0.005	-0.001		
1.995	107.360	97.240	97.240	301.840	1.995	0.780	-0.635	0.014	-0.006	-0.002	0.001	1.995	64.660	67.310	129.850	261.820	1.995	0.791	-0.628	0.076	0.006	0.004	-0.001		
2.000	107.360	94.600	94.600	296.560	2.000	0.780	-0.635	0.014	-0.006	-0.003	0.001	2.000	64.660	67.310	129.850	261.820	2.000	0.791	-0.628	0.075	0.009	0.003	-0.001		
2.005	107.360	94.600	94.600	296.560	2.005	0.780	-0.635	0.014	-0.007	-0.004	0.001	2.005	64.660	72.080	129.850	266.590	2.005	0.790	-0.628	0.075	0.010	0.002	-0.001		
2.010	107.360	94.600	94.600	296.560	2.010	0.779	-0.635	0.015	-0.007	-0.004	0.001	2.010	64.660	69.960	127.200	261.820	2.010	0.790	-0.626	0.076	0.010	0.003	-0.001		
2.015	107.360	97.240	94.600	299.200	2.015	0.780	-0.635	0.015	-0.007	-0.004	0.001	2.015	64.660	69.960	127.200	261.820	2.015	0.791	-0.625	0.076	0.009	0.003	-0.001		
2.020	107.360	97.240	94.600	299.200	2.020	0.780	-0.636	0.014	-0.009	-0.005	0.001	2.020	64.660	72.080	129.850	266.590	2.020	0.792	-0.624	0.076	0.009	0.004	-0.001		
2.025	110.000	97.240	94.600	301.840	2.025	0.780	-0.636	0.014	-0.009	-0.005	0.001	2.025	64.660	69.960	129.850	264.470	2.025	0.793	-0.624	0.077	0.009	0.004	0.000		
2.030	107.360	94.600	97.240	299.200	2.030	0.780	-0.636	0.014	-0.009	-0.005	0.001	2.030	65.000	67.080	130.000	262.080	2.030	0.793	-0.624	0.077	0.010	0.003	0.000		
2.035	107.360	97.240	94.600	299.200	2.035	0.780	-0.637	0.014	-0.009	-0.005	0.001	2.035	65.000	72.280	127.400	264.680	2.035	0.793	-0.625	0.077	0.012	0.002	0.001		
2.040	107.360	92.400	97.240	297.000	2.040	0.780	-0.637	0.014	-0.010	-0.005	0.001	2.040	65.000	69.680	130.000	264.680	2.040	0.792	-0.626	0.078	0.015	0.001	0.001		
2.045	107.360	94.600	97.240	299.200	2.045	0.780	-0.637	0.014	-0.010	-0.005	0.001	2.045	65.000	69.680	127.400	262.080	2.045	0.791	-0.627	0.078	0.016	0.000	0.002		
2.050	107.360	92.400	97.240	297.000	2.050	0.780	-0.637	0.014	-0.011	-0.005	0.001	2.050	62.400	72.280	130.000	264.680	2.050	0.789	-0.628	0.078	0.016	0.000	0.003		
2.055	104.720	94.600	97.240	296.560	2.055	0.781	-0.637	0.013	-0.011	-0.005	0.001	2.055	65.000	69.680	127.400	262.080	2.055	0.788	-0.629	0.078	0.015	0.001	0.003		
2.060	104.720	94.600	94.600	293.920	2.060	0.781	-0.636	0.013	-0.011	-0.004	0.001	2.060	65.000	67.080	127.400	259.480	2.060	0.788	-0.629	0.078	0.013	0.002	0.003		
2.065	107.500	94.600	94.600	296.700	2.065	0.781	-0.638	0.011	-0.002	-0.007	0.002	2.065	65.000	72.280	130.000	267.280	2.065	0.788	-0.628	0.077	0.010	0.003	0.003		
2.070	107.500	94.600	97.180	299.280	2.070	0.780	-0.638	0.011	-0.002	-0.006	0.002	2.070	62.400	69.680	127.400	259.480	2.070	0.789	-0.627	0.077	0.007	0.004	0.002		
2.075	107.500	97.180	97.180	301.860	2.075	0.779	-0.638	0.012	-0.001	-0.006	0.001	2.075	62.400	69.680	127.400	259.480	2.075	0.790	-0.626	0.078	0.006	0.005	0.002		
2.080	104.920	97.180	94.600	296.700	2.080	0.780	-0.638	0.012	-0.001	-0.005	0.001	2.080	65.000	72.280	130.000	267.280	2.080	0.790	-0.625	0.078	0.006	0.006	0.002		
2.085	107.500	94.600	94.600	296.700	2.085	0.780	-0.637	0.013	0.000	-0.005	0.001	2.085	64.770	69.870	127.500	262.140	2.085	0.791	-0.625	0.078	0.007	0.006	0.002		
2.090	104.920	94.600	94.600	294.120	2.090	0.780	-0.636	0.013	0.000	-0.005	0.001	2.090	64.770	69.870	127.500	262.140	2.090	0.791	-0.624	0.079	0.009	0.005	0.002		
2.095	107.500	97.180	97.180	301.860	2.095	0.780	-0.635	0.014	0.000	-0.005	0.001	2.095	67.320	69.870	127.500	264.690	2.095	0.791	-0.625	0.078	0.011	0.005	0.002		
2.100	107.500	97.180	97.180	301.860	2.100	0.779	-0.635	0.014	0.001	-0.006	0.001	2.100	64.770	69.870	127.500	262.140	2.100	0.791	-0.625	0.078	0.012	0.005	0.003		
2.105	107.500	94.600	94.600	296.700	2.105	0.779	-0.635	0.014	0.001	-0.006	0.001	2.105	64.770	69.870	127.500	262.140	2.105	0.790	-0.626	0.078	0.012	0.005	0.003		
2.110	107.500	94.600	97.180	299.280	2.110	0.779	-0.635	0.013	0.001	-0.006	0.001	2.110	64.770	69.870	127.500	262.140	2.110	0.790	-0.627	0.078	0.012	0.005	0.003		
2.115	107.500	94.600	97.180	299.280	2.115	0.780	-0.636	0.013	0.001	-0.007	0.001	2.115	64.770	69.870	127.500	262.140	2.115	0.789	-0.628	0.079	0.011	0.006	0.003		
2.120	-1.000	-1.000	-1.000	0.000	2.120	-	-	-	-	-	-	2.120	64.770	69.870	127.500	262.140	2.120	0.789	-0.628	0.079	0.009	0.006	0.004		
2.125	-1.000	-1.000	-1.000	0.000	2.125	-	-	-	-	-	-	2.125	67.320	72.420	127.500	267.240	2.125	0.789	-0.628	0.079	0.007	0.007	0.004		
2.130	-1.000	-1.000	-1.000	0.000	2.130	-	-	-	-	-	-	2.130	64.770	72.420	127.500	264.690	2.130	0.789	-0.627	0.079	0.006	0.007	0.003		
2.135	-1.000	-1.000	-1.000	0.000	2.135	-	-	-	-	-	-	2.135	64.770	72.420	124.950	262.140	2.135	0.789	-0.626	0.080	0.006	0.006	0.003		
2.140	-1.000	-1.000	-1.000	0.000	2.140	-	-	-	-	-	-	2.145	64.770	69.870	124.950	259.590	2.145	0.788	-0.627	0.079	0.012	0.000	0.003		
2.145	-1.000	-1.000	-1.000	0.000	2.145	-	-	-	-	-	-	2.145	64.770	69.870	124.950	259.590	2.145	0.788	-0.627	0.079	0.012	0.000	0.003		
2.150	-1.000	-1.000	-1.000	0.000	2.150	-	-	-	-	-	-	2.150	64.770	69.870	122.400	257.040	2.150	0.789	-0.627	0.079	0.010	0.001	0.003		
2.155	-1.000	-1.000	-1.000	0.000	2.155	-	-	-	-	-	-	2.155	64.770	69.870	124.950	259.590	2.155	0.789	-0.627	0.078	0.009	0.001	0.002		
2.160	-1.000	-1.000	-1.000	0.000	2.160	-	-	-	-	-	-	2.160	64.770	72.420	124.950	262.140	2.160	0.790	-0.627	0.078	0.009	0.001	0.002		
2.165	-1.000	-1.000	-1.000	0.000	2.165	-	-	-	-	-	-	2.165	64.770	69.870	127.500	262.140	2.165	0.790	-0.627	0.078	0.009	0.001	0.002		
2.170	-1.000	-1.000	-1.000	0.000	2.170	-	-	-	-	-	-	2.170	64.770	72.420	127.500	264.690	2.170	0.790	-0.626	0.078	0.010	0.001	0.001		
2.175	102.340	94.600	94.600	291.540	2.175	0.781	-0.637	0.013	0.001	-0.007	0.001	2.175	64.770	72.420	127.500	264.690	2.175	0.790	-0.626	0.078	0.011	0.001	0.001		
2.180	104.920	94.600	94.600	294.120	2.180	0.782	-0.637	0.012	0.002	-0.009	0.001	2.180	64.770	72.420	124.950	262.140	2.180	0.789	-0.625	0.078	0.011	0.001	0.001		
2.185	104.920	94.600	97.180	296.700	2.185	0.782	-0.638	0.013	0.002	-0.009	0.001	2.185	64.770	72.420	124.950	262.140	2.185	0.789	-0.625	0.078	0.012	0.002	0.001		
2.190	107.500	97.180	97.180	301.860	2.190	0.782	-0.638	0.012	0.002	-0.009	0.002	2.190	64.770	72.420	124.950	262.140	2.190	0.788	-0.625	0.077	0.011	0.003	0.002		
2.195	107.500	94.600	94.600	296.700	2.195	0.781	-0.638	0.012	0.001	-0.009	0.002	2.195	62.220	69.870	127.500	259.590	2.195	0.788	-0.626	0.076	0.011	0.005	0.002		
2.200	104.920	97.180	97.180	299.280	2.200	0.780	-0.638	0.011	0.001	-0.009	0.002	2.200	-1.000	-1.000	-1.000	0.000	2.200	-	-	-	-	-	-		
2.205	104.920	97.180	97.180	299.280	2.205	0.779	-0.638	0.011	0.002	-0.009	0.002	2.205	-1.000	-1.000	-1.000	0.000	2.205	-	-	-	-	-	-		
2.210	104.920	94.600	97.180	296.700	2.210	0.779	-0.637	0.010	0.002	-0.009	0.002	2.210	-1.000	-1.000	-1.000	0.000	2.210	-	-	-	-	-	-		
2.215	104.920	97.180	94.600	296.700	2.215	0.780	-0.636	0.010	0.003	-0.009	0.002	2.215	-1.000	-1.000	-1.000	0.000	2.215	-	-	-	-	-	-		
2.220	104.920	94.600	97.180	296.700	2.220	0.781	-0.634	0.010	0.003	-0.009	0.002	2.220	-1.000	-1.000	-1.000	0.000	2.220	-	-	-	-	-	-		
2.225	104.920	94.600	94.600	294.120	2.225	0.782	-0.633	0.010	0.003	-0.007	0.001	2.225	-1.000	-1.000	-1.000	0.000	2.225	-	-	-	-	-	-		
2.230	107.360	97.240	97.240	301.840	2.230	0.782	-0.633	0.010	0.002	-0.006	0.001	2.230	-1.000	-1.000	-1.000	0.000	2.230	-	-	-	-	-	-		
2.235	104.720	97.240	97.240	299.200	2.235	0.781	-0.634	0.011	0.001	-0.005	0.001	2.235	-1.000	-1.000	-1.000	0.000	2.235	-	-	-	-	-	-		
2.240	110.000	94.600	97.240	301.840	2.240	0.781	-0.634	0.011	0.000	-0.003	0.001	2.240	-1.000	-1.000	-1.000	0.000	2.240	-	-	-	-	-	-		
2.250	107.360	97.240	97.240	301.840	2.250	0.781	-0.635	0.011	0.000	-0.002	0.002	2.245	-1.000	-1.000	-1.000	0.000	2.245	-	-	-	-	-	-		
2.250	107.360	97.240	97.240	301.840	2.250	0.781	-0.635	0.011	0.000	-0.002	0.002	2.250	-1.000	-1.000	-1.000	0.000	2.250	-	-	-	-	-	-		
2.255	107.360	97.240	99.880	304.480	2.255	0.781	-0.636	0.011	0.000	-0.002	0.002	2.255	64.770	72.420	127.500	264.690	2.255	0.788	-0.626	0.075	0.012	0.006	0.002		
2.260	107.360	94.600	97.240	299.200	2.260	0.782	-0.637	0.012	0.001	-0.002	0.002	2.260	64.770	69.870	124.950	259.590	2.260	0.788	-0.626	0.074	0.012	0.007	0.002		
2.265	107.360	94.600	97.240	299.200	2.265	0.782	-0.637	0.013	0.001	-0.002	0.002	2.265	67.320	72.420	124.950	264.690	2.265	0.788	-0.626	0.074	0.014	0.010	0.003		
2.270	104.720	97.240	94.600	296.560	2.270	0.782	-0.636	0.014	0.002	-0.003	0.003	2.270	64.770	72.420	124.950	262.140	2.270	0.789	-0.626	0.074	0.016	0.011	0.003		
2.275	107.360	94.600	94.600	296.560	2.275	0.782	-0.635	0.014	0.002	-0.004	0.003	2.275	62.220	72.420	124.950	259.590	2.275	0.789	-0.626	0.074	0.018	0.011	0.004		
2.280	104.720	94.600	94.600	293.920	2.280	0.781	-0.634	0.015	0.001	-0.005	0.003	2.280	64.770	72.420	127.500	264.690	2.280	0.789	-0.626	0.075	0.019	0.012	0.004		
2.285	107.360	97.240	97.240	301.840	2.285	0.781	-0.634	0.015	0.001	-0.005	0.004	2.285	64.770	72.420	127.500	264.690	2.285	0.790	-0.625	0.076	0.021	0.013	0.004		
2.290	107.500	97.180	97.180	301.860	2.290	0.780	-0.634	0.014	0.000	-0.006	0.004	2.290	67.320	72.420	127.500	267.240	2.290	0.791	-0.626	0.077	0.022	0.014	0.003		
2.295	104.920	97.180	97.180	299.280	2.295	0.780	-0.635	0.014	0.000	-0.006	0.005	2.295	67.320	72.420	127.500	267.240	2.295	0.791	-0.626	0.079	0.023	0.015	0.003		
2.300	104.920	94.600	97.180	296.700	2.300	0.779	-0.636	0.013	-0.001	-0.007	0.005	2.300	64.770	72.420	127.500	264.690	2.300	0.792	-0.627	0.080	0.025	0.015	0.003		
2.305	104.920	94.600	97.180	296.700	2.305	0.779	-0.638	0.013	0.000	-0.009	0.005	2.305	67.320	72.420	127.500	267.240	2.305	0.792	-0.628	0.081	0.026	0.014	0.002		
2.310	104.920	94.600	99.760	299.280	2.310	0.778	-0.638	0.012	0.001	-0.010	0.005	2.310	62.220	72.420	127.500	262.140	2.310	0.792	-0.629	0.081	0.027	0.014	0.002		
2.315	104.920	97.180	97.180	299.280	2.315	0.778	-0.639	0.012	0.002	-0.012	0.005	2.315	64.770	74.970	127.500	267.240	2.315	0.792	-0.629	0.081	0.026	0.013	0.002		
2.320	107.500	97.180	99.760	304.440	2.320	0.778	-0.638	0.011	0.003	-0.013	0.005	2.320	64.770	74.970	127.500	267.240	2.320	0.792	-0.629	0.082	0.025	0.012	0.002		
2.325	104.920	94.600	97.180	296.700	2.325	0.779	-0.638	0.011	0.004	-0.015	0.005	2.325	64.770	72.420	127.500	264.690	2.325	0.793	-0.630	0.082	0.021	0.011	0.002		
2.330	107.500	94.600	99.760	301.860	2.330	0.780	-0.638	0.010	0.005	-0.015	0.005	2.330	64.770	72.420	127.500	264.690	2.330	0.793	-0.630	0.083	0.019	0.010	0.002		
2.335	104.920	97.180	97.180	299.280	2.335	0.781	-0.637	0.010	0.005	-0.016	0.004	2.340	67.320	72.420	127.500	267.240	2.340	0.793	-0.631	0.084	0.016	0.009	0.003		
2.340	104.920	94.600	97.180	296.700	2.340	0.781	-0.636	0.010	0.005	-0.015	0.004	2.340	67.320	72.420	127.500	267.240	2.340	0.793	-0.631	0.084	0.016	0.009	0.003		
2.345	105.000	97.440	97.440	299.880	2.345	0.780	-0.636	0.010	0.005	-0.015	0.003	2.345	67.320	69.870	127.500	264.690	2.345	0.792	-0.631	0.086	0.014	0.006	0.003		
2.350	105.000	94.920	99.960	299.880	2.350	0.780	-0.637	0.009	0.004	-0.014	0.003	2.350	67.320	72.420	127.500	267.240	2.350	0.790	-0.632	0.087	0.011	0.005	0.002		
2.355	102.480	94.920	97.440	294.840	2.355	0.779	-0.637	0.009	0.003	-0.013	0.002	2.355	67.320	72.420	124.950	264.690	2.355	0.789	-0.632	0.088	0.007	0.004	0.002		
2.360	105.000	94.920	97.440	297.360	2.360	0.779	-0.638	0.010	0.003	-0.013	0.002	2.360	67.320	72.420	127.500	267.240	2.360	0.788	-0.631	0.089	0.004	0.003	0.001		
2.365	105.000	97.440	97.440	299.880	2.365	0.779	-0.638	0.011	0.003	-0.012	0.002	2.365	67.320	74.970	124.950	267.240	2.365	0.788	-0.631	0.089	0.000	0.002	0.001		
2.370	102.480	94.920	97.440	294.840	2.370	0.779	-0.637	0.011	0.003	-0.011	0.001	2.370	67.320	74.970	127.500	269.790	2.370	0.788	-0.630	0.088	-0.003	0.001	0.000		
2.375	102.480	94.920	97.440	294.840	2.375	0.779	-0.637	0.012	0.003	-0.010	0.001	2.375	64.770	72.420	124.950	262.140	2.375	0.789	-0.629	0.087	-0.005	0.000	0.000		
2.380	102.480	97.440	97.440	297.360	2.380	0.778	-0.636	0.011	0.003	-0.007	0.001	2.380	64.770	72.420	124.950	262.140	2.380	0.789	-0.628	0.084	-0.006	-0.001	0.000		
2.385	102.480	97.440	97.440	297.360	2.385	0.778	-0.635	0.010	0.002	-0.005	0.000	2.385	67.320	72.420	127.500	267.240	2.385	0.790	-0.627	0.082	-0.007	-0.002	0.000		
2.390	102.480	97.440	97.440	297.360	2.390	0.778	-0.635	0.010	0.000	-0.003	0.000	2.390	67.320	74.970	127.500	269.790	2.390	0.790	-0.626	0.080	-0.006	-0.003	-0.001		
2.395	102.480	97.440	99.960	299.880	2.395	0.779	-0.634	0.010	-0.001	-0.001	0.000	2.395	64.770	72.420	127.500	264.690	2.395	0.791	-0.626	0.078	-0.005	-0.004	-0.001		
2.400	102.500	99.630	97.170	299.300	2.400	0.780	-0.635	0.009	-0.003	0.000	0.000	2.400	67.320	74.970	127.500	269.790	2.400	0.791	-0.626	0.078	-0.004	-0.005	-0.002		
2.405	102.500	94.710	97.170	294.380	2.405	0.780	-0.635	0.010	-0.005	0.002	0.000	2.405	67.320	72.420	124.950	264.690	2.405	0.791	-0.626	0.078	-0.002	-0.005	-0.002		
2.410	102.500	97.170	99.630	299.300	2.410	0.780	-0.636	0.010	-0.006	0.004	0.000	2.410	67.320	74.970	127.500	269.790	2.410	0.790	-0.626	0.078	-0.001	-0.005	-0.002		
2.415	102.500	97.170	99.630	299.300	2.415	0.779	-0.636	0.011	-0.007	0.005	0.000	2.415	64.770	69.870	124.950	259.590	2.415	0.790	-0.627	0.078	0.001	-0.004	-0.001		
2.420	102.500	97.170	97.170	296.840	2.420	0.779	-0.636	0.011	-0.007	0.005	0.000	2.420	67.320	74.970	127.500	269.790	2.420	0.790	-0.626	0.077	0.002	-0.003	-0.001		
2.425	102.500	97.170	97.170	296.840	2.425	0.780	-0.636	0.012	-0.007	0.005	0.000	2.425	67.320	74.970	127.500	269.790	2.425	0.790	-0.626	0.077	0.002	-0.002	-0.001		
2.430	102.500	97.170	99.630	299.300	2.430	0.780	-0.636	0.012	-0.006	0.004	0.000	2.430	67.320	74.970	127.500	269.790	2.430	0.791	-0.625	0.076	0.002	-0.001	0.000		
2.435	102.500	99.630	99.630	301.760	2.435	0.781	-0.636	0.012	-0.006	0.003	0.001	2.435	67.320	72.420	124.950	264.690	2.435	0.792	-0.625	0.076	0.003	0.000	0.001		
2.440	102.500	97.170	97.170	296.840	2.440	0.781	-0.636	0.011	-0.005	0.002	0.001	2.440	64.770	72.420	124.950	262.140	2.440	0.792	-0.624	0.077	0.003	0.001	0.001		
2.445	102.500	99.630	99.630	301.760	2.445	0.781	-0.636	0.011	-0.005	0.002	0.002	2.445	67.320	74.970	124.950	267.240	2.445	0.791	-0.625	0.078	0.004	0.001	0.002		
2.450	99.630	97.170	99.630	296.430	2.450	0.780	-0.637	0.010	-0.005	0.002	0.002	2.450	67.320	72.420	127.500	267.240	2.450	0.791	-0.625	0.078	0.005	0.001	0.002		
2.455	99.630	94.710	99.630	293.970	2.455	0.779	-0.637	0.010	-0.005	0.002	0.002	2.455	67.320	72.420	122.400	262.140	2.455	0.789	-0.627	0.080	0.005	0.002	0.002		
2.460	99.630	97.170	99.630	296.430	2.460	0.779	-0.637	0.009	-0.004	0.002	0.002	2.460	69.870	74.970	124.950	269.790	2.460	0.788	-0.629	0.081	0.004	0.003	0.002		
2.465	99.630	97.170	99.630	296.430	2.465	0.779	-0.636	0.009	-0.003	0.001	0.002	2.465	67.320	74.970	124.950	267.240	2.465	0.787	-0.631	0.082	0.002	0.004	0.002		
2.470	99.630	97.170	99.630	296.430	2.470	0.779	-0.636	0.009	-0.002	0.000	0.002	2.470	67.320	74.970	124.950	267.240	2.470	0.786	-0.632	0.083	-0.001	0.006	0.002		
2.475	99.630	99.630	99.630	298.890	2.475	0.779	-0.636	0.010	-0.002	0.000	0.002	2.475	67.320	72.420	124.950	264.690	2.475	0.787	-0.631	0.083	-0.005	0.009	0.002		
2.480	102.500	99.630	102.500	304.630	2.480	0.778	-0.636	0.010	-0.003	0.000	0.002	2.480	67.320	74.970	124.950	267.240	2.480	0.788	-0.630	0.084	-0.009	0.010	0.001		
2.485	99.630	99.630	102.500	301.760	2.485	0.778	-0.637	0.009	-0.003	0.000	0.002	2.485	67.320	72.420	124.950	264.690	2.485	0.789	-0.628	0.084	-0.012	0.011	0.001		
2.490	97.170	97.170	97.170	291.510	2.490	0.778	-0.638	0.009	-0.003	0.000	0.001	2.490	69.870	74.970	122.400	267.240	2.490	0.790	-0.626	0.084	-0.013	0.011	0.000		
2.495	99.630	99.630	99.630	298.890	2.495	0.778	-0.639	0.008	-0.004	0.000	0.001	2.495	67.320	72.420	124.950	264.690	2.495	0.791	-0.626	0.084	-0.013	0.010	0.000		
2.500	99.630	99.630	99.630	298.890	2.500	0.779	-0.639	0.008	-0.003	0.000	0.000	2.500	67.320	74.970	122.400	264.690	2.500	0.792	-0.626	0.083	-0.011	0.007	0.000		
2.505	97.170	99.630	102.500	299.300	2.505	0.780	-0.639	0.009	-0.003	0.000	0.000	2.505	67.320	74.970	127.500	269.790	2.505	0.792	-0.626	0.082	-0.007	0.004	0.000		
2.510	99.630	99.630	102.500	301.760	2.510	0.780	-0.638	0.010	-0.003	0.000	-0.001	2.510	67.320	74.970	124.950	267.240	2.510	0.792	-0.626	0.082	-0.004	0.001	0.000		
2.515	99.630	97.170	99.630	296.430	2.515	0.781	-0.637	0.011	-0.003	0.001	-0.001	2.515	67.320	74.970	124.950	267.240	2.515	0.791	-0.626	0.082	-0.002	-0.001	0.000		
2.520	99.630	97.170	99.630	296.430	2.520	0.781	-0.635	0.012	-0.004	0.002	-0.002	2.520	67.320	74.970	124.950	267.240	2.520	0.790	-0.627	0.081	-0.001	-0.002	0.000		
2.525	99.630	99.630	99.630	298.890	2.525	0.781	-0.635	0.012	-0.004	0.004	-0.002	2.525	67.320	74.970	122.400	264.690	2.525	0.790	-0.627	0.081	0.000	-0.002	0.000		
2.530	99.630	102.500	99.630	301.760	2.530	0.780	-0.634	0.012	-0.005	0.004	-0.001	2.535	67.320	74.970	122.400	264.690	2.535	0.789	-0.627	0.080	0.000	-0.002	0.000		
2.535	97.170	97.170	99.630	293.970	2.535	0.780	-0.635	0.012	-0.005	0.005	-0.001	2.535	67.320	74.970	122.400	264.690	2.535	0.789	-0.627	0.080	0.000	-0.002	0.000		
2.540	97.170	99.630	99.630	296.430	2.540	0.779	-0.635	0.011	-0.004	0.004	-0.001	2.540	69.580	74.970	119.560	264.110	2.540	0.789	-0.628	0.081	0.002	0.003	0.000		
2.545	97.170	99.630	102.500	299.300	2.545	0.779	-0.636	0.010	-0.004	0.004	0.000	2.545	69.580	74.970	119.560	264.110	2.545	0.789	-0.627	0.082	0.001	0.004	0.000		
2.550	99.630	99.630	99.630	298.890	2.550	0.780	-0.636	0.010	-0.003	0.003	0.000	2.550	67.130	74.970	119.560	261.660	2.550	0.789	-0.625	0.082	0.000	0.005	0.000		
2.555	99.630	99.630	99.630	298.890	2.555	0.780	-0.637	0.010	-0.002	0.002	0.000	2.555	67.130	74.970	122.500	264.600	2.555	0.789	-0.625	0.082	-0.001	0.006	0.000		
2.560	99.630	99.630	102.500	301.760	2.560	0.781	-0.637	0.010	-0.002	0.002	0.000	2.560	69.580	74.970	122.500	267.050	2.560	0.789	-0.624	0.081	-0.002	0.006	0.000		
2.570	97.170	99.630	97.170	293.970	2.570	0.781	-0.637	0.010	-0.003	0.002	0.000	2.565	69.580	74.970	119.560	264.110	2.565	0.789	-0.624	0.081	-0.002	0.006	0.000		
2.570	97.170	99.630	97.170	293.970	2.570	0.781	-0.637	0.010	-0.003	0.002	0.000	2.570	67.130	74.970	119.560	261.660	2.570	0.790	-0.624	0.080	-0.002	0.007	0.001		
2.575	99.630	99.630	102.500	301.760	2.575	0.780	-0.637	0.010	-0.004	0.003	0.000	2.575	69.580	74.970	119.560	264.110	2.575	0.790	-0.625	0.079	-0.001	0.006	0.001		
2.580	99.630	99.630	99.630	298.890	2.580	0.780	-0.636	0.010	-0.005	0.003	0.000	2.580	69.580	74.970	119.560	264.110	2.580	0.790	-0.625	0.078	-0.001	0.006	0.002		
2.585	99.630	99.630	102.500	301.760	2.585	0.780	-0.635	0.010	-0.006	0.003	0.000	2.585	69.580	74.970	119.560	264.110	2.585	0.790	-0.626	0.078	0.000	0.006	0.002		
2.590	99.630	102.500	102.500	304.630	2.590	0.780	-0.634	0.011	-0.006	0.003	0.000	2.590	69.580	74.970	117.110	261.660	2.590	0.791	-0.628	0.078	0.001	0.006	0.002		
2.595	99.630	99.630	102.500	301.760	2.595	0.779	-0.634	0.011	-0.006	0.003	0.000	2.595	-1.000	-1.000	-1.000	0.000	2.595	-	-	-	-	-	-		
2.600	97.170	99.630	102.500	299.300	2.600	0.779	-0.634	0.011	-0.006	0.003	0.001	2.600	-1.000	-1.000	-1.000	0.000	2.600	-	-	-	-	-	-		
2.605	97.170	99.630	99.630	296.430	2.605	0.779	-0.635	0.012	-0.005	0.002	0.001	2.605	-1.000	-1.000	-1.000	0.000	2.605	-	-	-	-	-	-		
2.610	99.630	99.630	102.500	301.760	2.610	0.778	-0.636	0.011	-0.004	0.001	0.002	2.610	-1.000	-1.000	-1.000	0.000	2.610	-	-	-	-	-	-		
2.615	97.170	99.630	102.500	299.300	2.615	0.778	-0.636	0.011	-0.004	0.000	0.003	2.615	-1.000	-1.000	-1.000	0.000	2.615	-	-	-	-	-	-		
2.620	97.170	99.630	99.630	296.430	2.620	0.778	-0.637	0.010	-0.003	-0.001	0.003	2.620	-1.000	-1.000	-1.000	0.000	2.620	-	-	-	-	-	-		
2.625	99.630	102.500	102.500	304.630	2.625	0.778	-0.637	0.009	-0.003	-0.001	0.003	2.625	-1.000	-1.000	-1.000	0.000	2.625	-	-	-	-	-	-		
2.630	99.630	99.630	102.500	301.760	2.630	0.779	-0.637	0.008	-0.002	-0.002	0.003	2.630	-1.000	-1.000	-1.000	0.000	2.630	-	-	-	-	-	-		
2.635	97.170	97.170	102.500	296.840	2.635	0.779	-0.637	0.009	-0.002	-0.001	0.003	2.635	-1.000	-1.000	-1.000	0.000	2.635	-	-	-	-	-	-		
2.640	97.170	99.630	99.630	296.430	2.640	0.779	-0.638	0.009	-0.003	-0.001	0.003	2.640	-1.000	-1.000	-1.000	0.000	2.640	-	-	-	-	-	-		
2.645	97.170	102.500	102.500	302.170	2.645	0.780	-0.637	0.010	-0.003	0.000	0.003	2.645	-1.000	-1.000	-1.000	0.000	2.645	-	-	-	-	-	-		
2.650	97.170	99.630	99.630	296.430	2.650	0.780	-0.637	0.010	-0.004	0.000	0.003	2.650	69.580	77.420	119.560	266.560	2.650	0.791	-0.629	0.079	0.001	0.006	0.002		
2.655	99.630	99.630	99.630	298.890	2.655	0.781	-0.636	0.010	-0.004	0.000	0.003	2.655	67.130	74.970	119.560	261.660	2.655	0.790	-0.629	0.079	0.001	0.007	0.002		
2.660	97.170	102.500	99.630	299.300	2.660	0.780	-0.635	0.010	-0.005	0.001	0.003	2.660	69.580	74.970	119.560	264.110	2.660	0.790	-0.628	0.079	0.001	0.007	0.001		
2.665	99.630	102.500	99.630	301.760	2.665	0.779	-0.635	0.009	-0.006	0.001	0.003	2.665	67.130	77.420	122.500	267.050	2.665	0.789	-0.626	0.081	0.001	0.009	0.001		
2.670	99.630	99.630	99.630	298.890	2.670	0.779	-0.635	0.009	-0.007	0.002	0.003	2.670	69.580	74.970	119.560	264.110	2.670	0.789	-0.625	0.082	0.000	0.010	0.000		
2.675	97.170	99.630	102.500	299.300	2.675	0.778	-0.635	0.009	-0.009	0.002	0.003	2.675	67.130	77.420	117.110	261.660	2.675	0.789	-0.624	0.083	0.000	0.010	0.000		
2.680	97.440	99.960	102.480	299.880	2.680	0.779	-0.636	0.008	-0.009	0.002	0.003	2.680	67.130	72.030	119.560	258.720	2.680	0.790	-0.624	0.084	0.000	0.010	0.000		
2.685	99.960	99.960	102.480	302.400	2.685	0.780	-0.636	0.008	-0.007	0.001	0.002	2.685	69.580	77.420	119.560	266.560	2.685	0.791	-0.625	0.085	0.001	0.009	0.000		
2.690	99.960	102.480	105.000	307.440	2.690	0.781	-0.637	0.008	-0.006	0.001	0.002	2.690	72.030	77.420	122.500	271.950	2.690	0.792	-0.626	0.085	0.003	0.006	0.001		
2.695	99.960	102.480	102.480	304.920	2.695	0.780	-0.638	0.008	-0.006	0.000	0.002	2.695	69.580	74.970	119.560	264.110	2.695	0.793	-0.628	0.084	0.004	0.004	0.001		
2.700	99.960	99.960	99.960	299.880	2.700	0.780	-0.639	0.009	-0.005	0.000	0.002	2.700	69.580	74.970	117.110	261.660	2.700	0.793	-0.629	0.084	0.006	0.003	0.001		
2.705	99.960	99.960	99.960	299.880	2.705	0.779	-0.639	0.009	-0.004	0.000	0.002	2.705	69.600	74.880	120.000	264.480	2.705	0.792	-0.629	0.083	0.007	0.001	0.001		
2.710	99.960	102.480	102.480	304.920	2.710	0.778	-0.639	0.010	-0.004	0.000	0.003	2.710	72.480	74.880	120.000	267.360	2.710	0.791	-0.629	0.081	0.007	0.000	0.001		
2.715	99.960	99.960	99.960	299.880	2.715	0.778	-0.638	0.010	-0.003	0.000	0.003	2.715	67.200	74.880	120.000	262.080	2.715	0.790	-0.628	0.080	0.006	-0.001	0.001		
2.720	99.960	99.960	99.960	299.880	2.720	0.778	-0.637	0.010	-0.002	0.000	0.002	2.720	69.600	74.880	120.000	264.480	2.720	0.790	-0.627	0.079	0.004	0.000	0.001		
2.725	97.440	97.440	102.480	297.360	2.725	0.778	-0.637	0.010	-0.001	-0.001	0.002	2.725	69.600	74.880	120.000	264.480	2.725	0.790	-0.626	0.079	0.003	0.000	0.001		
2.730	97.440	99.960	99.960	297.360	2.730	0.779	-0.636	0.008	0.000	-0.001	0.001	2.735	69.600	74.880	120.000	264.480	2.735	0.790	-0.625	0.080	0.003	0.001	0.001		
2.735	97.170	102.500	102.500	302.170	2.735	0.780	-0.636	0.008	0.000	-0.001	0.001	2.735	69.600	74.880	120.000	264.480	2.735	0.790	-0.625	0.080	0.003	0.001	0.001		
2.740	97.170	102.500	99.630	299.300	2.740	0.781	-0.636	0.007	0.001	-0.001	0.001	2.740	69.600	74.880	120.000	264.480	2.740	0.790	-0.626	0.080	0.004	0.002	0.001		
2.745	97.170	102.500	99.630	299.300	2.745	0.781	-0.637	0.007	0.001	-0.001	0.001	2.745	69.600	74.880	117.120	261.600	2.745	0.789	-0.627	0.081	0.005	0.002	0.002		
2.750	97.170	99.630	99.630	296.430	2.750	0.781	-0.638	0.007	0.001	0.000	0.000	2.750	69.600	74.880	120.000	264.480	2.750	0.789	-0.629	0.082	0.006	0.002	0.002		
2.755	97.170	102.500	99.630	299.300	2.755	0.781	-0.638	0.007	0.001	0.000	0.000	2.755	69.600	74.880	120.000	264.480	2.755	0.789	-0.630	0.083	0.007	0.003	0.003		
2.760	97.170	99.630	99.630	296.430	2.760	0.780	-0.638	0.007	0.002	0.000	-0.001	2.760	69.600	77.280	120.000	266.880	2.760	0.789	-0.630	0.084	0.007	0.003	0.003		
2.765	97.170	99.630	99.630	296.430	2.765	0.779	-0.638	0.008	0.003	0.000	-0.001	2.765	69.600	74.880	117.120	261.600	2.765	0.790	-0.630	0.084	0.005	0.004	0.003		
2.770	99.630	99.630	99.630	298.890	2.770	0.778	-0.638	0.008	0.003	0.000	-0.002	2.770	69.600	74.880	120.000	264.480	2.770	0.791	-0.629	0.085	0.002	0.005	0.003		
2.775	97.170	99.630	102.500	299.300	2.775	0.778	-0.637	0.009	0.002	-0.001	-0.002	2.775	69.600	74.880	120.000	264.480	2.775	0.792	-0.628	0.084	0.000	0.005	0.003		
2.780	97.170	99.630	99.630	296.430	2.780	0.779	-0.636	0.009	0.001	-0.001	-0.003	2.780	69.600	74.880	120.000	264.480	2.780	0.792	-0.627	0.084	-0.003	0.005	0.003		
2.785	97.170	99.630	99.630	296.430	2.785	0.780	-0.635	0.009	0.000	-0.001	-0.003	2.785	69.600	74.880	117.120	261.600	2.785	0.793	-0.626	0.083	-0.004	0.005	0.002		
2.790	97.440	99.960	99.960	297.360	2.790	0.781	-0.634	0.009	-0.002	0.000	-0.003	2.790	69.600	77.280	120.000	266.880	2.790	0.792	-0.626	0.082	-0.004	0.003	0.002		
2.795	99.960	102.480	102.480	304.920	2.795	0.781	-0.634	0.009	-0.003	0.001	-0.003	2.795	72.480	74.880	117.120	264.480	2.795	0.792	-0.626	0.082	-0.003	0.002	0.002		
2.800	97.440	102.480	99.960	299.880	2.800	0.781	-0.635	0.009	-0.005	0.003	-0.003	2.800	69.600	74.880	117.120	261.600	2.800	0.792	-0.625	0.082	-0.002	0.000	0.002		
2.805	97.440	102.480	102.480	302.400	2.805	0.781	-0.636	0.008	-0.005	0.003	-0.003	2.805	69.600	74.880	120.000	264.480	2.805	0.790	-0.625	0.082	-0.001	-0.001	0.002		
2.810	99.960	105.000	102.480	307.440	2.810	0.780	-0.637	0.008	-0.005	0.003	-0.003	2.810	69.600	79.680	120.000	269.280	2.810	0.789	-0.625	0.082	-0.001	-0.001	0.003		
2.815	97.440	99.960	102.480	299.880	2.815	0.779	-0.638	0.006	-0.004	0.003	-0.003	2.815	69.600	74.880	117.120	261.600	2.815	0.788	-0.625	0.082	0.000	-0.002	0.003		
2.820	97.440	102.480	102.480	302.400	2.820	0.778	-0.638	0.006	-0.002	0.002	-0.003	2.820	69.600	74.880	120.000	264.480	2.820	0.788	-0.625	0.082	0.000	-0.001	0.004		
2.825	99.960	102.480	102.480	304.920	2.825	0.778	-0.638	0.006	0.000	0.001	-0.004	2.825	69.600	77.280	120.000	266.880	2.825	0.789	-0.624	0.081	0.001	-0.001	0.004		
2.830	97.440	102.480	102.480	302.400	2.830	0.779	-0.638	0.006	0.001	0.000	-0.004	2.830	69.600	74.880	120.000	264.480	2.830	0.790	-0.624	0.080	0.003	-0.002	0.004		
2.835	97.440	102.480	102.480	302.400	2.835	0.780	-0.637	0.007	0.002	0.000	-0.004	2.835	69.600	77.280	117.120	264.000	2.835	0.792	-0.625	0.079	0.005	-0.003	0.004		
2.840	99.960	102.480	102.480	304.920	2.840	0.781	-0.636	0.008	0.002	0.000	-0.004	2.840	69.600	77.280	120.000	266.880	2.840	0.792	-0.625	0.079	0.007	-0.004	0.004		
2.845	97.170	99.630	102.500	299.300	2.845	0.781	-0.635	0.009	0.001	0.001	-0.004	2.845	69.600	74.880	114.720	259.200	2.845	0.792	-0.627	0.080	0.010	-0.004	0.005		
2.850	97.170	102.500	102.500	302.170	2.850	0.780	-0.636	0.009	0.000	0.002	-0.003	2.850	67.200	77.280	117.120	261.600	2.850	0.792	-0.628	0.081	0.012	-0.005	0.006		
2.855	97.170	102.500	102.500	302.170	2.855	0.779	-0.636	0.009	-0.001	0.003	-0.003	2.855	69.600	74.880	117.120	261.600	2.855	0.790	-0.628	0.082	0.011	-0.004	0.006		
2.860	99.630	102.500	102.500	304.630	2.860	0.779	-0.637	0.008	-0.001	0.004	-0.002	2.860	69.600	77.280	117.120	264.000	2.860	0.789	-0.628	0.083	0.009	-0.003	0.006		
2.865	97.170	99.630	102.500	299.300	2.865	0.779	-0.638	0.008	0.000	0.003	-0.002	2.865	69.600	77.280	120.000	266.880	2.865	0.789	-0.628	0.083	0.005	-0.001	0.005		
2.870	97.170	102.500	102.500	302.170	2.870	0.779	-0.638	0.007	0.001	0.003	-0.002	2.870	69.600	77.280	120.000	266.880	2.870	0.789	-0.628	0.084	0.002	0.000	0.005		
2.875	97.170	102.500	102.500	302.170	2.875	0.779	-0.638	0.007	0.004	0.002	-0.003	2.875	69.600	74.880	114.720	259.200	2.875	0.790	-0.625	0.082	0.003	0.001	0.003		
2.880	97.170	102.500	102.500	302.170	2.880	0.779	-0.638	0.007	0.005	0.001	-0.003	2.880	69.600	74.880	117.120	261.600	2.880	0.791	-0.624	0.082	0.004	0.001	0.003		
2.885	97.170	99.630	102.500	299.300	2.885	0.779	-0.637	0.006	0.007	0.001	-0.004	2.885	72.480	77.280	114.720	264.480	2.885	0.791	-0.624	0.081	0.005	0.000	0.004		
2.895	97.170	102.500	102.500	302.170	2.895	0.780	-0.636	0.007	0.007	0.001	-0.004	2.890	69.600	77.280	117.120	264.000	2.890	0.792	-0.624	0.081	0.007	0.000	0.004		
2.895	97.170	102.500	102.500	302.170	2.895	0.780	-0.636	0.007	0.007	0.001	-0.004	2.895	69.600	77.280	117.120	264.000	2.895	0.791	-0.625	0.080	0.010	-0.001	0.005		
2.900	97.170	102.500	102.500	302.170	2.900	0.780	-0.635	0.008	0.007	0.002	-0.004	2.900	69.600	77.280	120.000	266.880	2.900	0.791	-0.626	0.080	0.011	-0.001	0.005		
2.905	97.440	102.480	105.000	304.920	2.905	0.781	-0.635	0.008	0.006	0.003	-0.004	2.905	69.600	74.880	117.120	261.600	2.905	0.790	-0.627	0.080	0.011	-0.002	0.005		
2.910	97.440	102.480	102.480	302.400	2.910	0.781	-0.634	0.009	0.005	0.004	-0.004	2.910	69.600	77.280	117.120	264.000	2.910	0.789	-0.628	0.080	0.012	-0.001	0.005		
2.915	97.440	102.480	102.480	302.400	2.915	0.781	-0.634	0.010	0.003	0.005	-0.004	2.915	69.600	74.880	114.720	259.200	2.915	0.788	-0.628	0.081	0.012	-0.001	0.005		
2.920	97.440	102.480	99.960	299.880	2.920	0.781	-0.634	0.010	0.002	0.006	-0.003	2.920	69.600	77.280	120.000	266.880	2.920	0.787	-0.628	0.081	0.012	-0.001	0.005		
2.925	97.440	102.480	99.960	299.880	2.925	0.781	-0.635	0.010	0.002	0.006	-0.003	2.930	69.600	74.880	117.120	261.600	2.930	0.786	-0.628	0.081	0.012	0.000	0.005		
2.930	97.440	99.960	102.480	299.880	2.930	0.782	-0.635	0.010	0.001	0.005	-0.002	2.930	69.600	74.880	117.120	261.600	2.930	0.786	-0.628	0.081	0.012	0.000	0.005		
2.935	99.960	105.000	105.000	309.960	2.935	0.782	-0.636	0.009	0.001	0.005	-0.002	2.935	-1.000	-1.000	-1.000	0.000	2.935	-	-	-	-	-	-		
2.940	99.960	102.480	102.480	304.920	2.940	0.782	-0.636	0.009	0.001	0.005	-0.002	2.940	-1.000	-1.000	-1.000	0.000	2.940	-	-	-	-	-	-		
2.945	97.440	102.480	102.480	302.400	2.945	0.781	-0.636	0.008	0.001	0.006	-0.002	2.945	-1.000	-1.000	-1.000	0.000	2.945	-	-	-	-	-	-		
2.950	99.960	102.480	102.480	304.920	2.950	0.781	-0.636	0.008	0.000	0.006	-0.002	2.950	-1.000	-1.000	-1.000	0.000	2.950	-	-	-	-	-	-		
2.955	99.960	99.960	102.480	302.400	2.955	0.780	-0.635	0.007	0.000	0.007	-0.002	2.955	-1.000	-1.000	-1.000	0.000	2.955	-	-	-	-	-	-		
2.960	99.960	102.480	102.480	304.920	2.960	0.780	-0.635	0.007	0.000	0.007	-0.002	2.960	-1.000	-1.000	-1.000	0.000	2.960	-	-	-	-	-	-		
2.965	97.440	102.480	102.480	302.400	2.965	0.780	-0.636	0.007	0.000	0.009	-0.002	2.965	-1.000	-1.000	-1.000	0.000	2.965	-	-	-	-	-	-		
2.970	99.960	102.480	102.480	304.920	2.970	0.780	-0.637	0.007	0.000	0.009	-0.003	2.970	-1.000	-1.000	-1.000	0.000	2.970	-	-	-	-	-	-		
2.975	99.960	102.480	105.000	307.440	2.975	0.779	-0.638	0.006	0.000	0.009	-0.003	2.975	-1.000	-1.000	-1.000	0.000	2.975	-	-	-	-	-	-		
2.980	99.960	102.480	105.000	307.440	2.980	0.778	-0.639	0.006	0.001	0.009	-0.004	2.980	-1.000	-1.000	-1.000	0.000	2.980	-	-	-	-	-	-		
2.985	99.960	99.960	105.000	304.920	2.985	0.779	-0.639	0.006	0.002	0.009	-0.005	2.985	-1.000	-1.000	-1.000	0.000	2.985	-	-	-	-	-	-		
2.990	99.960	102.480	102.480	304.920	2.990	0.779	-0.639	0.006	0.003	0.007	-0.005	2.990	69.600	74.880	117.120	261.600	2.990	0.786	-0.628	0.081	0.012	0.000	0.005		
2.995	102.480	105.000	105.000	312.480	2.995	0.781	-0.637	0.007	0.004	0.007	-0.006	2.995	67.200	74.880	117.120	259.200	2.995	0.788	-0.628	0.082	0.012	0.001	0.005		
3.000	99.960	102.480	105.000	307.440	3.000	0.782	-0.636	0.008	0.005	0.007	-0.006	3.000	69.600	74.880	117.120	261.600	3.000	0.790	-0.628	0.082	0.012	0.001	0.005		
3.005	99.960	102.480	105.000	307.440	3.005	0.782	-0.635	0.009	0.006	0.007	-0.007	3.005	69.600	77.280	117.120	264.000	3.005	0.791	-0.629	0.083	0.013	0.001	0.005		
3.010	102.480	102.480	102.480	307.440	3.010	0.783	-0.633	0.009	0.005	0.009	-0.007	3.010	67.200	74.880	117.120	259.200	3.010	0.792	-0.630	0.084	0.014	0.000	0.005		
3.015	99.960	102.480	102.480	304.920	3.015	0.783	-0.633	0.010	0.005	0.009	-0.007	3.015	69.600	74.880	117.120	261.600	3.015	0.791	-0.630	0.086	0.016	-0.002	0.005		
3.020	99.960	99.960	105.000	304.920	3.020	0.782	-0.633	0.010	0.005	0.009	-0.006	3.020	69.600	74.880	117.120	261.600	3.020	0.790	-0.632	0.086	0.016	-0.003	0.004		
3.025	99.960	102.480	99.960	302.400	3.025	0.782	-0.634	0.009	0.005	0.009	-0.006	3.025	67.200	72.480	120.000	259.680	3.025	0.789	-0.632	0.086	0.014	-0.004	0.004		
3.030	99.960	102.480	102.480	304.920	3.030	0.781	-0.635	0.009	0.005	0.009	-0.005	3.030	67.200	74.880	117.120	259.200	3.030	0.788	-0.631	0.086	0.011	-0.003	0.004		
3.035	99.960	99.960	99.960	299.880	3.035	0.781	-0.636	0.008	0.006	0.009	-0.004	3.035	67.200	74.880	120.000	262.080	3.035	0.789	-0.630	0.084	0.004	-0.001	0.004		
3.040	99.960	99.960	102.480	302.400	3.040	0.781	-0.637	0.007	0.007	0.009	-0.004	3.040	67.200	77.280	120.000	264.480	3.040	0.789	-0.629	0.083	-0.001	0.002	0.004		
3.045	99.960	99.960	102.480	302.400	3.045	0.781	-0.637	0.006	0.009	0.009	-0.004	3.045	67.200	74.880	117.120	259.200	3.045	0.790	-0.629	0.083	-0.005	0.003	0.004		
3.050	102.480	102.480	102.480	307.440	3.050	0.782	-0.637	0.006	0.009	0.009	-0.005	3.050	69.600	74.880	120.000	264.480	3.050	0.790	-0.629	0.083	-0.006	0.003	0.004		
3.055	99.960	102.480	102.480	304.920	3.055	0.783	-0.636	0.007	0.009	0.009	-0.005	3.055	69.600	74.880	117.120	261.600	3.055	0.789	-0.629	0.083	-0.006	0.002	0.004		
3.060	99.960	102.480	105.000	307.440	3.060	0.783	-0.635	0.007	0.009	0.010	-0.005	3.060	67.200	72.480	117.120	256.800	3.060	0.789	-0.628	0.083	-0.005	0.000	0.004		
3.065	99.960	99.960	99.960	299.880	3.065	0.783	-0.634	0.008	0.007	0.011	-0.004	3.065	67.200	72.480	117.120	256.800	3.065	0.789	-0.628	0.083	-0.004	-0.001	0.003		
3.070	99.960	99.960	102.480	302.400	3.070	0.782	-0.634	0.009	0.006	0.012	-0.004	3.070	67.200	72.480	117.120	256.800	3.070	0.789	-0.628	0.083	-0.003	-0.002	0.003		
3.075	102.480	102.480	102.480	307.440	3.075	0.781	-0.634	0.009	0.005	0.013	-0.003	3.075	69.600	72.480	120.000	262.080	3.075	0.789	-0.627	0.083	-0.003	-0.002	0.002		
3.080	99.960	99.960	102.480	302.400	3.080	0.780	-0.635	0.010	0.005	0.013	-0.003	3.080	67.200	74.880	117.120	259.200	3.080	0.790	-0.627	0.083	-0.003	-0.002	0.002		
3.085	102.480	102.480	102.480	307.440	3.085	0.779	-0.635	0.010	0.005	0.012	-0.002	3.085	67.200	74.880	120.000	262.080	3.085	0.790	-0.627	0.083	-0.003	-0.002	0.002		
3.090	99.960	99.960	102.480	302.400	3.090	0.778	-0.635	0.011	0.005	0.011	-0.002	3.090	67.200	72.480	117.120	256.800	3.090	0.791	-0.626	0.084	-0.004	-0.001	0.002		
3.095	99.960	102.480	102.480	304.920	3.095	0.778	-0.635	0.011	0.006	0.010	-0.002	3.095	67.200	72.480	117.120	256.800	3.095	0.791	-0.626	0.084	-0.004	-0.001	0.002		
3.100	99.960	99.960	102.480	302.400	3.100	0.779	-0.634	0.011	0.006	0.010	-0.002	3.100	64.680	74.970	117.110	256.760	3.100	0.791	-0.625	0.083	-0.003	-0.001	0.003		
3.105	102.480	99.960	105.000	307.440	3.105	0.780	-0.633	0.011	0.005	0.009	-0.002	3.105	67.130	74.970	117.110	259.210	3.105	0.790	-0.625	0.083	-0.001	-0.001	0.003		
3.110	99.960	102.480	105.000	307.440	3.110	0.781	-0.632	0.011	0.004	0.010	-0.002	3.110	67.130	74.970	119.560	261.660	3.110	0.789	-0.626	0.082	0.000	-0.002	0.003		
3.115	102.480	99.960	102.480	304.920	3.115	0.781	-0.632	0.011	0.003	0.010	-0.001	3.115	64.680	74.970	119.560	259.210	3.115	0.788	-0.627	0.082	0.002	-0.003	0.003		
3.120	99.960	99.960	102.480	302.400	3.120	0.781	-0.633	0.011	0.001	0.010	-0.001	3.125	67.130	74.970	119.560	261.660	3.125	0.787	-0.628	0.081	0.002	-0.004	0.003		
3.125	99.960	102.480	102.480	304.920	3.125	0.781	-0.634	0.011	0.000	0.011	-0.001	3.125	67.130	74.970	119.560	261.660	3.125	0.787	-0.628	0.081	0.002	-0.004	0.003		
3.130	99.960	102.480	102.480	304.920	3.130	0.780	-0.635	0.010	-0.001	0.010	-0.001	3.130	67.130	72.030	119.560	258.720	3.130	0.787	-0.629	0.081	0.002	-0.004	0.003		
3.135	99.960	99.960	102.480	302.400	3.135	0.780	-0.636	0.010	-0.002	0.010	0.000	3.135	67.130	72.030	122.500	261.660	3.135	0.788	-0.629	0.081	0.001	-0.003	0.003		
3.140	99.960	102.480	102.480	304.920	3.140	0.780	-0.637	0.010	-0.002	0.009	0.000	3.140	67.130	72.030	117.110	256.270	3.140	0.789	-0.629	0.080	-0.001	-0.001	0.003		
3.145	99.960	105.000	102.480	307.440	3.145	0.781	-0.637	0.010	-0.001	0.006	0.000	3.145	64.680	74.970	119.560	259.210	3.145	0.790	-0.628	0.080	-0.003	0.001	0.003		
3.150	99.960	97.440	102.480	299.880	3.150	0.781	-0.637	0.010	-0.001	0.005	0.000	3.150	67.130	74.970	119.560	261.660	3.150	0.791	-0.627	0.080	-0.004	0.002	0.003		
3.155	102.480	99.960	105.000	307.440	3.155	0.782	-0.636	0.010	-0.001	0.005	0.000	3.155	67.130	72.030	119.560	258.720	3.155	0.791	-0.626	0.080	-0.004	0.003	0.003		
3.160	99.960	102.480	102.480	304.920	3.160	0.783	-0.634	0.011	0.000	0.004	0.000	3.160	67.200	72.480	120.000	259.680	3.160	0.791	-0.627	0.080	-0.004	0.003	0.003		
3.165	99.960	102.480	105.000	307.440	3.165	0.783	-0.633	0.010	0.000	0.003	0.000	3.165	69.600	74.880	117.120	261.600	3.165	0.790	-0.628	0.081	-0.003	0.003	0.003		
3.170	99.960	102.480	102.480	304.920	3.170	0.783	-0.632	0.010	0.000	0.002	0.001	3.170	67.200	74.880	117.120	259.200	3.170	0.789	-0.629	0.081	-0.001	0.002	0.003		
3.175	102.480	102.480	99.960	304.920	3.175	0.782	-0.633	0.009	0.000	0.002	0.001	3.175	67.200	74.880	120.000	262.080	3.175	0.788	-0.629	0.081	0.000	0.002	0.002		
3.180	102.340	102.340	102.340	307.020	3.180	0.782	-0.633	0.009	0.000	0.001	0.002	3.180	67.200	72.480	117.120	256.800	3.180	0.788	-0.629	0.082	0.001	0.002	0.002		
3.185	99.760	102.340	102.340	304.440	3.185	0.781	-0.634	0.009	0.000	0.001	0.002	3.185	67.200	74.880	120.000	262.080	3.185	0.788	-0.629	0.083	0.001	0.002	0.002		
3.190	99.760	99.760	102.340	301.860	3.190	0.781	-0.635	0.009	0.001	0.000	0.003	3.190	69.600	72.480	117.120	259.200	3.190	0.789	-0.629	0.084	0.002	0.002	0.001		
3.195	99.760	99.760	102.340	301.860	3.195	0.780	-0.635	0.009	0.002	-0.001	0.003	3.195	67.200	74.880	120.000	262.080	3.195	0.790	-0.628	0.085	0.002	0.002	0.001		
3.200	97.180	102.340	102.340	301.860	3.200	0.780	-0.635	0.009	0.002	-0.001	0.003	3.200	67.200	74.880	120.000	262.080	3.200	0.790	-0.628	0.086	0.003	0.001	0.001		
3.205	99.760	102.340	102.340	304.440	3.205	0.779	-0.636	0.008	0.003	-0.002	0.003	3.205	67.200	74.880	117.120	259.200	3.205	0.791	-0.627	0.086	0.003	0.000	0.001		
3.215	99.760	102.340	104.920	307.020	3.215	0.779	-0.636	0.008	0.003	-0.002	0.002	3.210	67.200	74.880	114.720	256.800	3.210	0.791	-0.626	0.085	0.003	-0.001	0.001		
3.215	99.760	102.340	104.920	307.020	3.215	0.779	-0.636	0.008	0.003	-0.002	0.002	3.215	69.600	74.880	120.000	264.480	3.215	0.792	-0.626	0.084	0.003	-0.002	0.001		
3.220	99.760	99.760	102.340	301.860	3.220	0.779	-0.635	0.008	0.003	-0.002	0.002	3.220	67.200	74.880	117.120	259.200	3.220	0.791	-0.626	0.083	0.003	-0.003	0.002		
3.225	99.760	102.340	107.500	309.600	3.225	0.780	-0.635	0.009	0.002	-0.002	0.002	3.225	67.200	74.880	117.120	259.200	3.225	0.791	-0.626	0.083	0.003	-0.004	0.002		
3.230	99.760	102.340	102.340	304.440	3.230	0.781	-0.635	0.009	0.001	-0.001	0.001	3.230	69.600	74.880	117.120	261.600	3.230	0.790	-0.627	0.083	0.002	-0.004	0.002		
3.235	99.760	102.340	102.340	304.440	3.235	0.782	-0.636	0.009	0.001	0.001	0.001	3.235	67.200	74.880	117.120	259.200	3.235	0.790	-0.628	0.083	0.002	-0.005	0.002		
3.240	99.960	102.480	105.000	307.440	3.240	0.782	-0.636	0.009	0.000	0.002	0.001	3.240	69.600	74.880	117.120	261.600	3.240	0.789	-0.629	0.083	0.001	-0.004	0.002		
3.245	97.440	102.480	105.000	304.920	3.245	0.782	-0.636	0.008	-0.001	0.003	0.000	3.245	69.600	74.880	117.120	261.600	3.245	0.788	-0.629	0.083	-0.001	-0.004	0.002		
3.250	97.440	99.960	102.480	299.880	3.250	0.782	-0.636	0.008	-0.002	0.003	0.000	3.250	67.200	74.880	117.120	259.200	3.250	0.787	-0.629	0.083	-0.002	-0.003	0.002		
3.255	97.440	99.960	105.000	302.400	3.255	0.781	-0.636	0.009	-0.003	0.003	0.000	3.255	69.600	74.880	117.120	261.600	3.255	0.787	-0.628	0.083	-0.004	-0.002	0.002		
3.260	99.960	102.480	105.000	307.440	3.260	0.780	-0.635	0.009	-0.003	0.003	0.000	3.260	67.200	74.880	114.720	256.800	3.260	0.787	-0.628	0.083	-0.005	-0.002	0.001		
3.265	97.440	102.480	105.000	304.920	3.265	0.780	-0.635	0.009	-0.002	0.003	0.001	3.265	67.200	77.280	117.120	261.600	3.265	0.788	-0.628	0.082	-0.005	-0.002	0.001		
3.270	99.960	102.480	105.000	307.440	3.270	0.779	-0.635	0.009	-0.001	0.002	0.001	3.270	67.210	74.730	117.500	259.440	3.270	0.789	-0.628	0.082	-0.004	-0.002	0.001		
3.275	99.960	102.480	102.480	304.920	3.275	0.779	-0.634	0.008	-0.001	0.001	0.001	3.275	69.560	77.080	117.500	264.140	3.275	0.790	-0.628	0.082	-0.003	-0.002	0.000		
3.280	99.960	102.480	105.000	307.440	3.280	0.779	-0.634	0.008	0.000	0.001	0.000	3.280	67.210	74.730	114.680	256.620	3.280	0.791	-0.627	0.082	-0.001	-0.003	0.000		
3.285	97.440	102.480	105.000	304.920	3.285	0.779	-0.633	0.009	0.000	0.001	0.000	3.285	69.560	74.730	117.500	261.790	3.285	0.791	-0.627	0.083	0.001	-0.004	0.000		
3.290	97.440	102.480	102.480	302.400	3.290	0.779	-0.633	0.009	-0.001	0.001	0.001	3.290	67.210	74.730	117.500	259.440	3.290	0.790	-0.628	0.083	0.002	-0.005	0.000		
3.295	97.180	102.340	102.340	301.860	3.295	0.780	-0.633	0.010	-0.001	0.002	0.001	3.295	67.210	74.730	114.680	256.620	3.295	0.789	-0.628	0.083	0.003	-0.005	0.001		
3.300	97.180	102.340	104.920	304.440	3.300	0.780	-0.633	0.010	-0.002	0.002	0.001	3.300	67.210	77.080	117.500	261.790	3.300	0.789	-0.628	0.083	0.003	-0.004	0.001		
3.305	99.760	102.340	104.920	307.020	3.305	0.780	-0.634	0.010	-0.003	0.003	0.001	3.305	67.210	74.730	114.680	256.620	3.305	0.789	-0.627	0.081	0.002	-0.003	0.001		
3.310	97.180	102.340	104.920	304.440	3.310	0.780	-0.634	0.009	-0.003	0.003	0.001	3.310	69.560	74.730	114.680	258.970	3.310	0.790	-0.626	0.081	0.000	-0.001	0.001		
3.315	97.180	104.920	102.340	304.440	3.315	0.780	-0.635	0.008	-0.003	0.004	0.001	3.320	69.560	77.080	114.680	261.320	3.320	0.791	-0.625	0.080	-0.001	0.001	0.001		
3.320	97.180	102.340	104.920	304.440	3.320	0.780	-0.636	0.007	-0.003	0.004	0.001	3.320	69.560	77.080	114.680	261.320	3.320	0.791	-0.625	0.080	-0.001	0.001	0.001		
3.325	97.180	104.920	104.920	307.020	3.325	0.780	-0.637	0.006	-0.003	0.004	0.001	3.325	69.560	74.730	117.500	261.790	3.325	0.791	-0.625	0.080	-0.001	0.002	0.001		
3.330	94.600	102.340	104.920	301.860	3.330	0.781	-0.638	0.006	-0.003	0.005	0.001	3.330	69.560	74.730	114.680	258.970	3.330	0.791	-0.625	0.080	0.000	0.002	0.001		
3.335	97.180	102.340	102.340	301.860	3.335	0.781	-0.638	0.006	-0.002	0.005	0.000	3.335	69.560	74.730	114.680	258.970	3.335	0.790	-0.625	0.081	0.002	0.002	0.002		
3.340	97.180	102.340	104.920	304.440	3.340	0.781	-0.637	0.007	-0.002	0.005	0.000	3.340	69.560	77.080	114.680	261.320	3.340	0.789	-0.626	0.081	0.004	0.002	0.002		
3.345	94.600	104.920	107.500	307.020	3.345	0.782	-0.637	0.008	-0.001	0.004	-0.001	3.345	67.210	74.730	117.500	259.440	3.345	0.789	-0.627	0.083	0.005	0.001	0.002		
3.350	97.180	104.920	107.500	309.600	3.350	0.782	-0.636	0.008	-0.001	0.004	-0.001	3.350	69.560	74.730	114.680	258.970	3.350	0.788	-0.628	0.083	0.005	0.002	0.002		
3.355	94.600	104.920	104.920	304.440	3.355	0.782	-0.635	0.008	0.000	0.003	-0.001	3.355	69.560	74.730	117.500	261.790	3.355	0.789	-0.628	0.085	0.004	0.002	0.002		
3.360	94.600	104.920	104.920	304.440	3.360	0.782	-0.635	0.007	0.000	0.003	-0.001	3.360	67.210	74.730	114.680	256.620	3.360	0.789	-0.628	0.086	0.002	0.003	0.002		
3.365	97.180	104.920	104.920	307.020	3.365	0.782	-0.634	0.007	-0.001	0.003	-0.001	3.365	72.380	74.730	114.680	261.790	3.365	0.790	-0.627	0.086	-0.001	0.004	0.001		
3.370	97.180	102.340	104.920	304.440	3.370	0.781	-0.634	0.007	-0.001	0.003	-0.001	3.370	69.560	77.080	117.500	264.140	3.370	0.791	-0.626	0.085	-0.003	0.004	0.001		
3.375	94.600	102.340	104.920	301.860	3.375	0.781	-0.634	0.007	-0.001	0.003	0.000	3.375	69.560	74.730	114.680	258.970	3.375	0.792	-0.626	0.085	-0.004	0.004	0.001		
3.380	97.180	102.340	104.920	304.440	3.380	0.780	-0.634	0.008	-0.001	0.003	0.000	3.380	69.560	74.730	114.680	258.970	3.380	0.791	-0.626	0.083	-0.003	0.003	0.001		
3.385	94.600	104.920	104.920	304.440	3.385	0.780	-0.633	0.008	-0.001	0.003	0.001	3.385	69.560	74.730	114.680	258.970	3.385	0.791	-0.626	0.082	-0.001	0.001	0.002		
3.390	97.180	102.340	104.920	304.440	3.390	0.780	-0.633	0.009	-0.001	0.002	0.001	3.390	67.210	77.080	114.680	258.970	3.390	0.789	-0.627	0.081	0.000	0.000	0.002		
3.395	94.600	102.340	104.920	301.860	3.395	0.779	-0.633	0.008	0.000	0.001	0.002	3.395	67.210	74.730	112.330	254.270	3.395	0.788	-0.628	0.081	0.002	-0.001	0.003		
3.400	97.180	107.500	104.920	309.600	3.400	0.779	-0.633	0.008	0.000	0.000	0.002	3.400	69.560	77.080	117.500	264.140	3.400	0.788	-0.628	0.081	0.003	-0.001	0.003		
3.405	97.180	104.920	107.500	309.600	3.405	0.780	-0.634	0.007	0.000	0.000	0.002	3.405	69.560	74.730	112.330	256.620	3.405	0.787	-0.629	0.081	0.003	0.000	0.003		
3.410	97.180	102.340	104.920	304.440	3.410	0.780	-0.636	0.006	0.001	-0.001	0.002	3.410	69.560	74.730	114.680	258.970	3.410	0.787	-0.628	0.082	0.003	0.000	0.002		
3.415	94.600	104.920	104.920	304.440	3.415	0.781	-0.637	0.006	0.002	-0.002	0.002	3.415	69.560	74.730	117.500	261.790	3.415	0.788	-0.628	0.082	0.003	0.001	0.002		
3.420	97.180	104.920	104.920	307.020	3.420	0.782	-0.637	0.006	0.003	-0.002	0.002	3.420	69.560	74.730	114.680	258.970	3.420	0.788	-0.628	0.082	0.002	0.001	0.002		
3.425	94.600	104.920	104.920	304.440	3.425	0.782	-0.637	0.007	0.004	-0.003	0.002	3.425	69.560	74.730	114.680	258.970	3.425	0.788	-0.627	0.083	0.003	0.001	0.001		
3.430	94.600	107.500	107.500	309.600	3.430	0.782	-0.636	0.007	0.005	-0.003	0.002	3.430	69.560	77.080	114.680	261.320	3.430	0.789	-0.627	0.083	0.004	0.000	0.001		
3.435	92.450	104.920	104.920	302.290	3.435	0.782	-0.635	0.008	0.006	-0.003	0.002	3.435	69.560	74.730	114.680	258.970	3.435	0.789	-0.628	0.083	0.005	-0.002	0.001		
3.440	92.450	102.340	104.920	299.710	3.440	0.782	-0.634	0.008	0.007	-0.003	0.002	3.440	69.560	74.730	114.680	258.970	3.440	0.788	-0.629	0.082	0.007	-0.003	0.002		
3.445	94.600	104.920	104.920	304.440	3.445	0.781	-0.634	0.009	0.007	-0.003	0.002	3.445	67.210	74.730	114.680	256.620	3.445	0.788	-0.629	0.082	0.009	-0.004	0.002		
3.450	94.600	104.920	107.500	307.020	3.450	0.780	-0.633	0.008	0.006	-0.003	0.002	3.450	69.560	74.730	112.330	256.620	3.450	0.788	-0.629	0.082	0.009	-0.004	0.002		
3.455	94.600	104.920	107.500	307.020	3.455	0.780	-0.634	0.009	0.006	-0.003	0.002	3.455	69.560	74.730	114.680	258.970	3.455	0.789	-0.628	0.082	0.007	-0.003	0.002		
3.460	94.600	104.920	104.920	304.440	3.460	0.780	-0.634	0.008	0.006	-0.003	0.003	3.460	69.560	77.080	114.680	261.320	3.460	0.790	-0.627	0.082	0.005	-0.002	0.002		
3.465	94.600	104.920	104.920	304.440	3.465	0.780	-0.635	0.009	0.006	-0.004	0.003	3.465	67.210	74.730	114.680	256.620	3.465	0.792	-0.627	0.082	0.004	-0.001	0.002		
3.470	94.600	104.920	104.920	304.440	3.470	0.781	-0.635	0.009	0.006	-0.004	0.003	3.470	69.560	77.080	112.330	258.970	3.470	0.792	-0.627	0.082	0.003	-0.001	0.002		
3.475	94.600	104.920	104.920	304.440	3.475	0.781	-0.635	0.009	0.006	-0.004	0.003	3.475	67.210	74.730	117.500	259.440	3.475	0.791	-0.628	0.083	0.002	-0.001	0.002		
3.480	94.600	104.920	104.920	304.440	3.480	0.781	-0.635	0.009	0.006	-0.003	0.003	3.480	69.560	77.080	114.680	261.320	3.480	0.790	-0.628	0.083	0.002	-0.001	0.003		
3.485	94.600	102.340	107.500	304.440	3.485	0.780	-0.635	0.009	0.005	-0.003	0.004	3.485	69.560	74.730	114.680	258.970	3.485	0.789	-0.629	0.084	0.002	-0.002	0.003		
3.490	97.180	104.920	107.500	309.600	3.490	0.780	-0.635	0.009	0.005	-0.003	0.004	3.490	69.560	77.080	114.680	261.320	3.490	0.788	-0.630	0.085	0.002	-0.002	0.003		
3.495	97.180	104.920	104.920	307.020	3.495	0.780	-0.636	0.009	0.005	-0.002	0.004	3.495	69.560	74.730	114.680	258.970	3.495	0.788	-0.630	0.084	0.001	-0.003	0.003		
3.500	94.600	104.920	104.920	304.440	3.500	0.780	-0.636	0.008	0.004	-0.002	0.004	3.500	69.560	77.080	114.680	261.320	3.500	0.788	-0.630	0.084	0.000	-0.003	0.003		
3.505	94.600	104.920	102.340	301.860	3.505	0.780	-0.636	0.007	0.004	-0.001	0.004	3.505	69.560	77.080	114.680	261.320	3.505	0.788	-0.630	0.084	0.000	-0.004	0.002		
3.510	94.600	104.920	104.920	304.440	3.510	0.780	-0.636	0.006	0.004	-0.001	0.004	3.515	69.560	74.730	114.680	258.970	3.515	0.788	-0.629	0.083	0.000	-0.004	0.002		
3.515	94.920	102.480	102.480	299.880	3.515	0.780	-0.635	0.005	0.003	0.000	0.003	3.515	69.560	74.730	114.680	258.970	3.515	0.788	-0.629	0.083	0.000	-0.004	0.002		
3.520	94.920	102.480	102.480	299.880	3.520	0.780	-0.635	0.005	0.003	0.001	0.003	3.520	69.560	74.730	112.330	256.620	3.520	0.788	-0.629	0.083	0.001	-0.005	0.001		
3.525	94.920	105.000	105.000	304.920	3.525	0.780	-0.635	0.005	0.002	0.002	0.003	3.525	69.560	74.730	114.680	258.970	3.525	0.788	-0.628	0.082	0.002	-0.005	0.001		
3.535	94.920	105.000	102.480	302.400	3.535	0.780	-0.636	0.006	0.002	0.004	0.003	3.530	67.210	74.730	114.680	256.620	3.530	0.788	-0.627	0.082	0.003	-0.005	0.000		
3.535	94.920	105.000	102.480	302.400	3.535	0.780	-0.636	0.006	0.002	0.004	0.003	3.535	67.210	77.080	114.680	258.970	3.535	0.788	-0.626	0.081	0.004	-0.006	-0.001		
3.540	94.920	105.000	105.000	304.920	3.540	0.782	-0.636	0.006	0.002	0.005	0.003	3.540	69.560	74.730	114.680	258.970	3.540	0.788	-0.625	0.081	0.005	-0.005	-0.001		
3.545	94.920	102.480	102.480	299.880	3.545	0.783	-0.636	0.007	0.002	0.005	0.003	3.545	69.560	77.080	117.500	264.140	3.545	0.789	-0.625	0.082	0.005	-0.004	-0.001		
3.550	94.920	102.480	105.000	302.400	3.550	0.784	-0.635	0.008	0.003	0.005	0.003	3.550	69.560	77.080	117.500	264.140	3.550	0.790	-0.625	0.082	0.004	-0.004	-0.001		
3.555	97.440	105.000	105.000	307.440	3.555	0.784	-0.635	0.008	0.004	0.005	0.003	3.555	69.560	74.730	112.330	256.620	3.555	0.791	-0.626	0.083	0.003	-0.003	0.000		
3.560	94.920	102.480	102.480	299.880	3.560	0.783	-0.636	0.008	0.005	0.005	0.003	3.560	72.380	74.730	114.680	261.790	3.560	0.792	-0.628	0.083	0.002	-0.003	0.001		
3.565	94.920	102.480	102.480	299.880	3.565	0.782	-0.636	0.008	0.005	0.005	0.003	3.565	67.210	74.730	112.330	254.270	3.565	0.792	-0.629	0.084	0.001	-0.003	0.001		
3.570	97.440	105.000	105.000	307.440	3.570	0.781	-0.636	0.008	0.006	0.005	0.003	3.570	69.560	74.730	114.680	258.970	3.570	0.791	-0.630	0.084	0.000	-0.003	0.002		
3.575	97.440	102.480	105.000	304.920	3.575	0.780	-0.635	0.008	0.006	0.004	0.003	3.575	69.560	77.080	117.500	264.140	3.575	0.790	-0.631	0.084	-0.001	-0.003	0.002		
3.580	94.920	105.000	102.480	302.400	3.580	0.780	-0.635	0.008	0.007	0.004	0.004	3.580	67.210	74.730	117.500	259.440	3.580	0.790	-0.630	0.083	-0.002	-0.003	0.002		
3.585	94.920	102.480	102.480	299.880	3.585	0.780	-0.634	0.009	0.007	0.003	0.004	3.585	69.560	74.730	114.680	258.970	3.585	0.788	-0.629	0.083	-0.004	-0.002	0.002		
3.590	94.920	102.480	105.000	302.400	3.590	0.780	-0.634	0.010	0.007	0.002	0.004	3.590	69.560	77.080	114.680	261.320	3.590	0.787	-0.628	0.083	-0.004	-0.002	0.001		
3.595	94.920	105.000	105.000	304.920	3.595	0.781	-0.635	0.010	0.007	0.002	0.004	3.595	69.560	77.080	117.500	264.140	3.595	0.787	-0.628	0.083	-0.004	-0.002	0.000		
3.600	94.920	102.480	105.000	302.400	3.600	0.782	-0.635	0.010	0.006	0.002	0.004	3.600	69.560	77.080	114.680	261.320	3.600	0.786	-0.627	0.083	-0.003	-0.002	0.000		
3.605	94.920	102.480	102.480	299.880	3.605	0.782	-0.635	0.010	0.004	0.003	0.004	3.605	72.380	77.080	114.680	264.140	3.605	0.787	-0.627	0.082	-0.002	-0.002	-0.001		
3.610	94.920	105.000	105.000	304.920	3.610	0.781	-0.635	0.009	0.003	0.003	0.004	3.610	72.380	77.080	114.680	264.140	3.610	0.790	-0.627	0.083	-0.003	-0.004	0.000		
3.615	94.920	102.480	102.480	299.880	3.615	0.781	-0.635	0.008	0.001	0.004	0.003	3.615	72.380	77.080	117.500	266.960	3.615	0.791	-0.627	0.083	-0.004	-0.005	0.000		
3.620	94.920	105.000	105.000	304.920	3.620	0.781	-0.634	0.007	0.000	0.004	0.003	3.620	69.560	74.730	114.680	258.970	3.620	0.791	-0.627	0.083	-0.004	-0.006	0.000		
3.625	94.920	99.960	105.000	299.880	3.625	0.780	-0.635	0.006	0.000	0.004	0.003	3.625	69.560	77.080	117.500	264.140	3.625	0.791	-0.627	0.083	-0.004	-0.007	0.000		
3.630	94.920	102.480	105.000	302.400	3.630	0.780	-0.635	0.006	0.000	0.004	0.003	3.630	69.560	77.080	117.500	264.140	3.630	0.790	-0.628	0.083	-0.004	-0.009	0.000		
3.635	94.920	102.480	102.480	299.880	3.635	0.780	-0.635	0.007	0.001	0.004	0.003	3.635	69.560	77.080	117.500	264.140	3.635	0.790	-0.628	0.082	-0.003	-0.010	0.000		
3.640	94.920	105.000	105.000	304.920	3.640	0.779	-0.635	0.007	0.002	0.003	0.002	3.640	69.560	74.730	114.680	258.970	3.640	0.791	-0.628	0.081	-0.003	-0.010	0.000		
3.645	97.440	102.480	105.000	304.920	3.645	0.780	-0.635	0.007	0.003	0.003	0.002	3.645	72.380	74.730	117.500	264.610	3.645	0.791	-0.627	0.081	-0.003	-0.010	0.000		
3.650	94.920	102.480	102.480	299.880	3.650	0.780	-0.634	0.007	0.004	0.002	0.002	3.650	69.560	77.080	114.680	261.320	3.650	0.792	-0.626	0.080	-0.003	-0.009	0.000		
3.655	94.920	105.000	105.000	304.920	3.655	0.780	-0.634	0.007	0.006	0.002	0.002	3.655	72.380	77.080	114.680	264.140	3.655	0.792	-0.625	0.080	-0.003	-0.009	0.000		
3.660	92.400	105.000	105.000	302.400	3.660	0.781	-0.634	0.008	0.007	0.002	0.002	3.660	69.560	77.080	117.500	264.140	3.660	0.791	-0.625	0.080	-0.002	-0.009	0.000		
3.665	94.920	102.480	102.480	299.880	3.665	0.781	-0.635	0.008	0.007	0.003	0.002	3.665	-1.000	-1.000	-1.000	0.000	3.665	-	-	-	-	-	-		
3.670	94.920	105.000	102.480	302.400	3.670	0.781	-0.636	0.008	0.007	0.003	0.003	3.670	-1.000	-1.000	-1.000	0.000	3.670	-	-	-	-	-	-		
3.675	94.920	102.480	102.480	299.880	3.675	0.781	-0.637	0.008	0.007	0.004	0.003	3.675	-1.000	-1.000	-1.000	0.000	3.675	-	-	-	-	-	-		
3.680	97.440	105.000	105.000	307.440	3.680	0.781	-0.637	0.008	0.007	0.004	0.003	3.680	-1.000	-1.000	-1.000	0.000	3.680	-	-	-	-	-	-		
3.685	94.920	102.480	102.480	299.880	3.685	0.781	-0.637	0.008	0.007	0.004	0.003	3.685	-1.000	-1.000	-1.000	0.000	3.685	-	-	-	-	-	-		
3.690	97.440	105.000	102.480	304.920	3.690	0.781	-0.636	0.009	0.007	0.004	0.003	3.690	-1.000	-1.000	-1.000	0.000	3.690	-	-	-	-	-	-		
3.695	97.440	105.000	105.000	307.440	3.695	0.781	-0.635	0.009	0.009	0.004	0.003	3.695	-1.000	-1.000	-1.000	0.000	3.695	-	-	-	-	-	-		
3.700	94.920	102.480	102.480	299.880	3.700	0.782	-0.635	0.010	0.009	0.003	0.002	3.700	-1.000	-1.000	-1.000	0.000	3.700	-	-	-	-	-	-		
3.705	97.440	102.480	102.480	302.400	3.705	0.782	-0.634	0.010	0.007	0.003	0.002	3.710	-1.000	-1.000	-1.000	0.000	3.710	-	-	-	-	-	-		
3.710	97.440	102.480	105.000	304.920	3.710	0.781	-0.634	0.010	0.005	0.004	0.002	3.710	-1.000	-1.000	-1.000	0.000	3.710	-	-	-	-	-	-		
3.715	97.440	105.000	102.480	304.920	3.715	0.780	-0.635	0.011	0.004	0.004	0.002	3.715	-1.000	-1.000	-1.000	0.000	3.715	-	-	-	-	-	-		
3.720	94.920	102.480	102.480	299.880	3.720	0.779	-0.636	0.010	0.002	0.005	0.002	3.720	-1.000	-1.000	-1.000	0.000	3.720	-	-	-	-	-	-		
3.725	97.440	105.000	102.480	304.920	3.725	0.778	-0.636	0.010	0.000	0.006	0.003	3.725	69.600	77.280	117.120	264.000	3.725	0.791	-0.625	0.080	-0.002	-0.009	0.000		
3.730	97.440	105.000	105.000	307.440	3.730	0.778	-0.637	0.010	0.000	0.006	0.003	3.730	69.600	77.280	120.000	266.880	3.730	0.789	-0.626	0.080	-0.001	-0.009	0.001		
3.735	94.920	102.480	102.480	299.880	3.735	0.778	-0.636	0.010	-0.001	0.006	0.003	3.735	69.600	77.280	117.120	264.000	3.735	0.789	-0.627	0.080	0.000	-0.007	0.000		
3.740	94.920	102.480	105.000	302.400	3.740	0.779	-0.636	0.009	-0.001	0.006	0.003	3.740	72.480	74.880	117.120	264.480	3.740	0.788	-0.628	0.079	0.000	-0.005	0.000		
3.745	94.920	102.480	102.480	299.880	3.745	0.780	-0.635	0.008	0.000	0.005	0.003	3.745	69.600	77.280	117.120	264.000	3.745	0.788	-0.628	0.080	0.000	-0.004	0.000		
3.750	94.920	102.480	102.480	299.880	3.750	0.781	-0.634	0.007	0.000	0.005	0.002	3.750	69.600	77.280	117.120	264.000	3.750	0.789	-0.628	0.080	0.000	-0.003	0.000		
3.755	94.920	102.480	102.480	299.880	3.755	0.781	-0.634	0.006	0.001	0.004	0.002	3.755	69.600	74.880	114.720	259.200	3.755	0.789	-0.628	0.080	0.001	-0.002	0.000		
3.760	94.920	102.480	102.480	299.880	3.760	0.781	-0.634	0.006	0.001	0.004	0.002	3.760	69.600	77.280	114.720	261.600	3.760	0.790	-0.627	0.080	0.001	-0.001	0.000		
3.765	94.920	102.480	102.480	299.880	3.765	0.780	-0.634	0.007	0.001	0.005	0.001	3.765	72.480	77.280	114.720	264.480	3.765	0.790	-0.627	0.081	0.002	0.000	0.000		
3.770	94.920	102.480	105.000	302.400	3.770	0.781	-0.634	0.008	0.002	0.005	0.002	3.770	72.480	74.880	117.120	264.480	3.770	0.790	-0.626	0.082	0.002	0.001	0.000		
3.775	97.440	102.480	102.480	302.400	3.775	0.781	-0.634	0.008	0.002	0.005	0.002	3.775	69.600	77.280	114.720	261.600	3.775	0.790	-0.625	0.082	0.003	0.002	0.000		
3.780	97.440	102.480	105.000	304.920	3.780	0.781	-0.635	0.009	0.003	0.005	0.002	3.780	69.600	77.280	120.000	266.880	3.780	0.790	-0.625	0.083	0.004	0.002	0.000		
3.785	97.440	105.000	102.480	304.920	3.785	0.781	-0.635	0.009	0.004	0.005	0.002	3.785	72.480	77.280	114.720	264.480	3.785	0.790	-0.625	0.083	0.005	0.002	0.000		
3.790	97.440	105.000	105.000	307.440	3.790	0.781	-0.636	0.008	0.005	0.005	0.003	3.790	69.600	77.280	117.120	264.000	3.790	0.790	-0.625	0.083	0.004	0.003	0.001		
3.795	94.920	102.480	102.480	299.880	3.795	0.781	-0.635	0.011	0.003	0.002	0.003	3.795	72.480	77.280	117.120	266.880	3.795	0.791	-0.625	0.083	0.003	0.003	0.001		
3.800	97.440	102.480	102.480	302.400	3.800	0.781	-0.635	0.011	0.003	0.002	0.003	3.800	69.600	74.880	117.120	261.600	3.800	0.791	-0.625	0.082	0.002	0.003	0.002		
3.805	94.920	99.960	105.000	299.880	3.805	0.782	-0.634	0.011	0.003	0.002	0.003	3.805	72.480	79.680	117.120	269.280	3.805	0.791	-0.627	0.083	0.001	0.002	0.002		
3.810	94.920	99.960	102.480	297.360	3.810	0.782	-0.634	0.010	0.003	0.002	0.003	3.810	69.600	74.880	117.120	261.600	3.810	0.790	-0.627	0.083	0.000	0.002	0.002		
3.815	97.440	102.480	105.000	304.920	3.815	0.781	-0.634	0.009	0.004	0.001	0.003	3.815	69.600	72.480	117.120	259.200	3.815	0.790	-0.629	0.083	-0.001	0.001	0.002		
3.820	94.920	102.480	105.000	302.400	3.820	0.780	-0.634	0.007	0.004	0.000	0.003	3.820	69.600	74.880	117.120	261.600	3.820	0.789	-0.629	0.083	-0.002	0.001	0.002		
3.825	94.920	102.480	102.480	299.880	3.825	0.780	-0.634	0.006	0.004	0.000	0.004	3.825	69.600	77.280	117.120	264.000	3.825	0.789	-0.629	0.083	-0.002	0.001	0.001		
3.830	94.920	102.480	102.480	299.880	3.830	0.780	-0.634	0.006	0.005	-0.001	0.004	3.830	69.600	77.280	117.120	264.000	3.830	0.789	-0.628	0.083	-0.003	0.001	0.001		
3.835	94.920	102.480	105.000	302.400	3.835	0.780	-0.634	0.006	0.005	-0.001	0.004	3.835	72.480	74.880	117.120	264.480	3.835	0.789	-0.628	0.083	-0.003	0.001	0.001		
3.840	97.440	102.480	102.480	302.400	3.840	0.781	-0.635	0.006	0.006	-0.001	0.004	3.840	69.600	74.880	120.000	264.480	3.840	0.789	-0.628	0.082	-0.002	0.001	0.001		
3.845	94.920	102.480	105.000	302.400	3.845	0.781	-0.635	0.006	0.006	-0.001	0.005	3.845	69.600	77.280	117.120	264.000	3.845	0.790	-0.628	0.081	-0.001	0.000	0.001		
3.850	-1.000	-1.000	-1.000	0.000	3.850	-	-	-	-	-	-	3.850	69.600	74.880	117.120	261.600	3.850	0.790	-0.628	0.081	0.001	-0.001	0.001		
3.860	-1.000	-1.000	-1.000	0.000	3.860	-	-	-	-	-	-	3.855	69.600	74.880	114.720	259.200	3.855	0.790	-0.627	0.082	0.003	-0.002	0.001		
3.860	-1.000	-1.000	-1.000	0.000	3.860	-	-	-	-	-	-	3.860	72.480	74.880	117.120	264.480	3.860	0.790	-0.627	0.082	0.005	-0.003	0.001		
3.865	-1.000	-1.000	-1.000	0.000	3.865	-	-	-	-	-	-	3.865	69.600	77.280	117.120	264.000	3.865	0.790	-0.627	0.083	0.006	-0.003	0.001		
3.870	-1.000	-1.000	-1.000	0.000	3.870	-	-	-	-	-	-	3.870	69.600	74.880	117.120	261.600	3.870	0.790	-0.627	0.083	0.006	-0.003	0.001		
3.875	-1.000	-1.000	-1.000	0.000	3.875	-	-	-	-	-	-	3.875	69.600	77.280	117.120	264.000	3.875	0.790	-0.627	0.082	0.006	-0.003	0.000		
3.880	-1.000	-1.000	-1.000	0.000	3.880	-	-	-	-	-	-	3.880	72.480	77.280	114.720	264.480	3.880	0.790	-0.628	0.082	0.005	-0.002	0.000		
3.885	-1.000	-1.000	-1.000	0.000	3.885	-	-	-	-	-	-	3.885	69.600	74.880	117.120	261.600	3.885	0.790	-0.628	0.082	0.004	-0.001	0.000		
3.890	-1.000	-1.000	-1.000	0.000	3.890	-	-	-	-	-	-	3.890	69.560	74.730	114.680	258.970	3.890	0.790	-0.628	0.081	0.003	-0.001	0.000		
3.895	-1.000	-1.000	-1.000	0.000	3.895	-	-	-	-	-	-	3.895	67.210	74.730	117.500	259.440	3.895	0.790	-0.629	0.082	0.003	-0.001	0.000		
3.900	-1.000	-1.000	-1.000	0.000	3.900	-	-	-	-	-	-	3.905	72.380	74.730	114.680	261.790	3.905	0.789	-0.629	0.083	0.002	-0.001	0.000		
3.905	-1.000	-1.000	-1.000	0.000	3.905	-	-	-	-	-	-	3.905	72.380	74.730	114.680	261.790	3.905	0.789	-0.629	0.083	0.002	-0.001	0.000		
3.910	97.440	99.960	105.000	302.400	3.910	0.780	-0.636	0.010	0.003	0.002	0.004	3.910	69.560	74.730	117.500	261.790	3.910	0.789	-0.629	0.083	0.001	-0.002	0.000		
3.915	94.920	102.480	102.480	299.880	3.915	0.781	-0.635	0.011	0.003	0.002	0.004	3.915	69.560	77.080	117.500	264.140	3.915	0.788	-0.629	0.083	0.001	-0.002	0.000		
3.920	97.440	102.480	102.480	302.400	3.920	0.780	-0.635	0.011	0.002	0.002	0.004	3.920	69.560	77.080	114.680	261.320	3.920	0.788	-0.629	0.083	0.001	-0.002	0.000		
3.925	94.920	105.000	102.480	302.400	3.925	0.780	-0.634	0.012	0.002	0.002	0.004	3.925	69.560	74.730	117.500	261.790	3.925	0.788	-0.629	0.083	0.000	-0.002	0.000		
3.930	97.440	105.000	105.000	307.440	3.930	0.781	-0.633	0.012	0.000	0.002	0.005	3.930	69.560	77.080	117.500	264.140	3.930	0.788	-0.628	0.082	0.000	-0.002	0.000		
3.935	97.440	105.000	105.000	307.440	3.935	0.781	-0.632	0.012	-0.001	0.002	0.005	3.935	67.210	77.080	114.680	258.970	3.935	0.789	-0.628	0.081	0.000	-0.002	0.000		
3.940	94.920	102.480	102.480	299.880	3.940	0.781	-0.633	0.011	-0.003	0.002	0.005	3.940	69.560	77.080	114.680	261.320	3.940	0.789	-0.627	0.081	0.001	-0.002	0.000		
3.945	94.920	105.000	105.000	304.920	3.945	0.781	-0.634	0.010	-0.004	0.003	0.005	3.945	69.560	77.080	117.500	264.140	3.945	0.790	-0.627	0.080	0.001	-0.002	0.001		
3.950	97.440	105.000	105.000	307.440	3.950	0.780	-0.637	0.008	-0.006	0.003	0.005	3.950	69.560	74.730	114.680	258.970	3.950	0.790	-0.626	0.080	0.002	-0.002	0.001		
3.955	94.920	105.000	105.000	304.920	3.955	0.779	-0.640	0.007	-0.006	0.004	0.005	3.955	72.380	77.080	114.680	264.140	3.955	0.790	-0.627	0.081	0.003	-0.002	0.001		
3.960	94.920	102.480	105.000	302.400	3.960	0.779	-0.642	0.006	-0.005	0.004	0.005	3.960	69.560	77.080	114.680	261.320	3.960	0.789	-0.627	0.081	0.003	-0.002	0.001		
3.965	-1.000	-1.000	-1.000	0.000	3.965	-	-	-	-	-	-	3.965	69.560	79.900	114.680	264.140	3.965	0.789	-0.627	0.081	0.003	-0.002	0.001		
3.970	-1.000	-1.000	-1.000	0.000	3.970	-	-	-	-	-	-	3.970	69.560	77.080	114.680	261.320	3.970	0.790	-0.627	0.081	0.002	-0.002	0.001		
3.975	-1.000	-1.000	-1.000	0.000	3.975	-	-	-	-	-	-	3.975	69.560	77.080	114.680	261.320	3.975	0.791	-0.626	0.081	0.001	-0.001	0.001		
3.980	-1.000	-1.000	-1.000	0.000	3.980	-	-	-	-	-	-	3.980	69.560	77.080	117.500	264.140	3.980	0.791	-0.626	0.081	0.000	0.000	0.001		
3.985	-1.000	-1.000	-1.000	0.000	3.985	-	-	-	-	-	-	3.985	72.380	77.080	117.500	266.960	3.985	0.792	-0.625	0.081	-0.001	0.001	0.001		
3.990	-1.000	-1.000	-1.000	0.000	3.990	-	-	-	-	-	-	3.990	72.380	77.080	117.500	266.960	3.990	0.791	-0.625	0.082	0.000	0.001	0.001		
3.995	-1.000	-1.000	-1.000	0.000	3.995	-	-	-	-	-	-	3.995	69.560	77.080	117.500	264.140	3.995	0.790	-0.625	0.082	0.000	0.001	0.001		
4.000	-1.000	-1.000	-1.000	0.000	4.000	-	-	-	-	-	-	4.000	69.560	77.080	117.500	264.140	4.000	0.790	-0.625	0.082	0.001	0.001	0.001		
4.005	-1.000	-1.000	-1.000	0.000	4.005	-	-	-	-	-	-	4.005	72.380	77.080	117.500	266.960	4.005	0.789	-0.625	0.082	0.001	0.002	0.001		
4.010	-1.000	-1.000	-1.000	0.000	4.010	-	-	-	-	-	-	4.010	72.380	79.900	114.680	266.960	4.010	0.789	-0.625	0.082	0.001	0.002	0.002		
4.015	-1.000	-1.000	-1.000	0.000	4.015	-	-	-	-	-	-	4.015	69.560	77.080	117.500	264.140	4.015	0.790	-0.625	0.081	0.001	0.002	0.002		
4.020	97.440	102.480	102.480	302.400	4.020	0.779	-0.642	0.006	-0.004	0.003	0.004	4.020	69.560	79.900	117.500	266.960	4.020	0.789	-0.625	0.081	0.002	0.002	0.003		
4.025	94.920	102.480	102.480	299.880	4.025	0.780	-0.641	0.006	-0.002	0.002	0.004	4.025	72.380	74.730	117.500	264.610	4.025	0.790	-0.626	0.081	0.002	0.002	0.003		
4.030	94.920	102.480	102.480	299.880	4.030	0.780	-0.639	0.006	0.000	0.001	0.003	4.030	72.380	77.080	117.500	266.960	4.030	0.789	-0.627	0.082	0.003	0.002	0.003		
4.035	94.920	102.480	105.000	302.400	4.035	0.779	-0.637	0.007	0.002	0.001	0.003	4.035	69.560	79.900	117.500	266.960	4.035	0.790	-0.629	0.082	0.003	0.002	0.004		
4.040	94.920	102.480	102.480	299.880	4.040	0.779	-0.637	0.007	0.003	0.001	0.003	4.040	72.380	77.080	117.500	266.960	4.040	0.790	-0.630	0.082	0.004	0.002	0.004		
4.045	94.920	105.000	105.000	304.920	4.045	0.778	-0.636	0.008	0.004	0.001	0.003	4.045	69.560	77.080	117.500	264.140	4.045	0.790	-0.630	0.083	0.005	0.002	0.003		
4.050	94.920	102.480	105.000	302.400	4.050	0.778	-0.636	0.007	0.004	0.001	0.002	4.050	69.560	77.080	117.500	264.140	4.050	0.789	-0.629	0.083	0.005	0.001	0.003		
4.055	94.920	99.960	102.480	297.360	4.055	0.778	-0.635	0.007	0.004	0.001	0.002	4.055	69.560	77.080	117.500	264.140	4.055	0.788	-0.629	0.083	0.005	0.002	0.003		
4.060	94.920	102.480	102.480	299.880	4.060	0.778	-0.635	0.007	0.004	0.001	0.001	4.060	72.380	79.900	114.680	266.960	4.060	0.788	-0.628	0.083	0.004	0.002	0.003		
4.065	97.440	102.480	102.480	302.400	4.065	0.779	-0.635	0.007	0.004	0.001	-0.001	4.065	69.560	77.080	114.680	261.320	4.065	0.788	-0.627	0.083	0.004	0.002	0.003		
4.070	94.920	105.000	102.480	302.400	4.070	0.781	-0.634	0.007	0.004	0.001	-0.001	4.070	69.560	77.080	117.500	264.140	4.070	0.789	-0.626	0.082	0.004	0.002	0.003		
4.075	94.920	102.480	102.480	299.880	4.075	0.781	-0.634	0.007	0.003	0.002	-0.002	4.075	69.560	77.080	114.680	261.320	4.075	0.790	-0.627	0.083	0.004	0.001	0.003		
4.080	97.440	105.000	102.480	304.920	4.080	0.782	-0.634	0.007	0.002	0.002	-0.002	4.080	69.560	77.080	117.500	264.140	4.080	0.790	-0.627	0.083	0.005	0.001	0.003		
4.085	94.920	105.000	102.480	302.400	4.085	0.782	-0.634	0.007	0.002	0.003	-0.001	4.085	69.560	74.730	117.500	261.790	4.085	0.790	-0.628	0.083	0.006	0.000	0.003		
4.090	94.920	105.000	105.000	304.920	4.090	0.783	-0.635	0.008	0.001	0.003	-0.001	4.090	69.560	77.080	117.500	264.140	4.090	0.789	-0.629	0.083	0.007	0.000	0.003		
4.095	94.920	102.480	102.480	299.880	4.095	0.783	-0.635	0.008	0.002	0.003	0.000	4.100	69.560	77.080	117.500	264.140	4.100	0.789	-0.629	0.084	0.007	0.000	0.002		
4.100	94.920	102.480	105.000	302.400	4.100	0.782	-0.634	0.009	0.002	0.002	0.001	4.100	69.560	77.080	117.500	264.140	4.100	0.789	-0.629	0.084	0.007	0.000	0.002		
4.105	97.440	105.000	102.480	304.920	4.105	0.782	-0.634	0.009	0.003	0.002	0.001	4.105	69.560	79.900	114.680	264.140	4.105	0.789	-0.629	0.084	0.006	0.001	0.002		
4.110	97.440	105.000	105.000	307.440	4.110	0.781	-0.633	0.009	0.003	0.001	0.001	4.110	69.560	77.080	117.500	264.140	4.110	0.789	-0.628	0.084	0.005	0.001	0.002		
4.115	97.440	102.480	102.480	302.400	4.115	0.781	-0.633	0.009	0.003	0.000	0.001	4.115	72.380	74.730	114.680	261.790	4.115	0.791	-0.627	0.084	0.004	0.002	0.002		
4.120	94.920	102.480	102.480	299.880	4.120	0.780	-0.633	0.009	0.002	0.000	0.001	4.120	69.560	77.080	117.500	264.140	4.120	0.792	-0.626	0.083	0.004	0.002	0.002		
4.125	94.920	105.000	105.000	304.920	4.125	0.779	-0.634	0.008	0.002	-0.001	0.001	4.125	69.560	77.080	117.500	264.140	4.125	0.792	-0.625	0.083	0.004	0.002	0.002		
4.130	97.180	104.920	102.340	304.440	4.130	0.779	-0.635	0.007	0.001	-0.001	0.001	4.130	72.380	77.080	117.500	266.960	4.130	0.792	-0.625	0.083	0.004	0.001	0.003		
4.135	94.600	99.760	104.920	299.280	4.135	0.779	-0.637	0.007	0.000	-0.001	0.001	4.135	69.560	77.080	114.680	261.320	4.135	0.791	-0.626	0.083	0.005	0.001	0.003		
4.140	97.180	104.920	107.500	309.600	4.140	0.779	-0.637	0.006	0.000	-0.001	0.001	4.140	72.380	77.080	114.680	264.140	4.140	0.791	-0.627	0.083	0.005	0.000	0.004		
4.145	94.600	102.340	104.920	301.860	4.145	0.780	-0.637	0.006	0.000	-0.001	0.001	4.145	69.560	77.080	114.680	261.320	4.145	0.790	-0.628	0.083	0.005	0.000	0.004		
4.150	94.600	104.920	102.340	301.860	4.150	0.780	-0.636	0.006	0.000	-0.002	0.001	4.150	69.560	77.080	114.680	261.320	4.150	0.790	-0.628	0.083	0.004	0.000	0.005		
4.155	94.600	104.920	104.920	304.440	4.155	0.780	-0.635	0.007	0.001	-0.002	0.000	4.155	72.380	77.080	114.680	264.140	4.155	0.789	-0.629	0.083	0.003	0.000	0.005		
4.160	94.600	104.920	104.920	304.440	4.160	0.781	-0.634	0.007	0.001	-0.002	0.000	4.160	69.560	74.730	114.680	258.970	4.160	0.789	-0.630	0.083	0.002	0.000	0.005		
4.165	94.600	102.340	102.340	299.280	4.165	0.781	-0.634	0.007	0.001	-0.003	0.000	4.165	69.560	77.080	114.680	261.320	4.165	0.788	-0.630	0.083	0.001	0.000	0.004		
4.170	97.180	102.340	102.340	301.860	4.170	0.782	-0.634	0.007	0.001	-0.003	0.000	4.170	69.560	77.080	114.680	261.320	4.170	0.788	-0.630	0.084	0.000	0.001	0.003		
4.180	97.180	102.340	102.340	301.860	4.180	0.782	-0.634	0.008	0.002	-0.003	0.000	4.175	69.560	77.080	114.680	261.320	4.175	0.787	-0.630	0.083	-0.001	0.001	0.003		
4.180	97.180	102.340	102.340	301.860	4.180	0.782	-0.634	0.008	0.002	-0.003	0.000	4.180	72.380	79.900	117.500	269.780	4.180	0.787	-0.629	0.084	-0.001	0.002	0.002		
4.185	94.600	104.920	104.920	304.440	4.185	0.783	-0.634	0.008	0.003	-0.003	0.000	4.185	69.560	77.080	117.500	264.140	4.185	0.788	-0.628	0.083	-0.001	0.002	0.001		
4.190	97.180	104.920	102.340	304.440	4.190	0.784	-0.634	0.008	0.004	-0.004	0.001	4.190	69.560	77.080	114.680	261.320	4.190	0.789	-0.627	0.083	0.000	0.002	0.001		
4.195	97.180	102.340	104.920	304.440	4.195	0.784	-0.634	0.008	0.005	-0.004	0.001	4.195	72.380	74.730	114.680	261.790	4.195	0.790	-0.626	0.083	0.001	0.001	0.001		
4.200	97.180	104.920	104.920	307.020	4.200	0.783	-0.634	0.008	0.005	-0.003	0.002	4.200	69.560	77.080	114.680	261.320	4.200	0.790	-0.626	0.082	0.003	0.001	0.000		
4.205	94.600	102.340	104.920	301.860	4.205	0.782	-0.634	0.008	0.005	-0.003	0.002	4.205	72.380	77.080	114.680	264.140	4.205	0.791	-0.626	0.082	0.004	0.000	0.000		
4.210	97.180	104.920	104.920	307.020	4.210	0.780	-0.635	0.008	0.004	-0.002	0.002	4.210	69.560	77.080	114.680	261.320	4.210	0.792	-0.626	0.082	0.006	0.000	0.000		
4.215	97.180	104.920	104.920	307.020	4.215	0.779	-0.635	0.008	0.004	-0.001	0.002	4.215	69.560	77.080	114.680	261.320	4.215	0.792	-0.626	0.081	0.007	0.000	0.000		
4.220	97.180	102.340	104.920	304.440	4.220	0.779	-0.636	0.007	0.004	-0.001	0.002	4.220	69.560	74.730	114.680	258.970	4.220	0.792	-0.625	0.082	0.007	0.000	0.001		
4.225	97.180	104.920	107.500	309.600	4.225	0.780	-0.636	0.007	0.004	0.000	0.002	4.225	69.560	77.080	117.500	264.140	4.225	0.791	-0.625	0.081	0.007	0.001	0.001		
4.230	97.180	107.500	104.920	309.600	4.230	0.781	-0.636	0.007	0.004	0.001	0.001	4.230	72.220	79.580	115.000	266.800	4.230	0.791	-0.624	0.081	0.007	0.002	0.002		
4.235	94.600	104.920	104.920	304.440	4.235	0.781	-0.636	0.006	0.004	0.001	0.001	4.235	72.220	74.980	115.000	262.200	4.235	0.791	-0.624	0.082	0.007	0.002	0.002		
4.240	97.180	104.920	102.340	304.440	4.240	0.781	-0.636	0.006	0.004	0.002	0.001	4.240	69.920	77.280	115.000	262.200	4.240	0.790	-0.625	0.083	0.007	0.003	0.003		
4.245	94.600	102.340	104.920	301.860	4.245	0.779	-0.637	0.006	0.004	0.002	0.002	4.245	69.920	74.980	115.000	259.900	4.245	0.790	-0.626	0.083	0.007	0.003	0.004		
4.250	94.600	104.920	102.340	301.860	4.250	0.779	-0.638	0.007	0.004	0.002	0.002	4.250	69.920	77.280	115.000	262.200	4.250	0.789	-0.628	0.083	0.007	0.002	0.004		
4.255	97.180	104.920	104.920	307.020	4.255	0.779	-0.638	0.007	0.004	0.002	0.003	4.255	69.920	77.280	115.000	262.200	4.255	0.788	-0.629	0.083	0.009	0.002	0.004		
4.260	94.600	102.340	104.920	301.860	4.260	0.779	-0.639	0.007	0.005	0.001	0.003	4.260	69.920	74.980	112.240	257.140	4.260	0.788	-0.630	0.084	0.007	0.002	0.004		
4.265	94.600	104.920	107.500	307.020	4.265	0.779	-0.638	0.007	0.006	0.000	0.003	4.265	72.220	74.980	115.000	262.200	4.265	0.788	-0.630	0.085	0.006	0.002	0.004		
4.270	92.450	104.920	102.340	299.710	4.270	0.779	-0.638	0.007	0.007	-0.001	0.002	4.270	69.920	77.280	112.240	259.440	4.270	0.789	-0.629	0.086	0.004	0.002	0.003		
4.275	94.600	104.920	104.920	304.440	4.275	0.780	-0.637	0.007	0.007	-0.002	0.001	4.275	69.920	77.280	115.000	262.200	4.275	0.790	-0.628	0.086	0.003	0.002	0.002		
4.280	94.600	104.920	104.920	304.440	4.280	0.780	-0.636	0.007	0.009	-0.003	0.001	4.280	69.920	79.580	112.240	261.740	4.280	0.791	-0.628	0.086	0.002	0.002	0.002		
4.285	97.180	104.920	104.920	307.020	4.285	0.781	-0.635	0.007	0.010	-0.003	0.000	4.285	69.560	77.080	117.500	264.140	4.285	0.791	-0.627	0.085	0.001	0.001	0.002		
4.290	94.600	104.920	104.920	304.440	4.290	0.782	-0.634	0.007	0.010	-0.004	0.000	4.295	69.560	77.080	114.680	261.320	4.295	0.791	-0.627	0.084	0.002	0.000	0.002		
4.295	97.180	104.920	104.920	307.020	4.295	0.783	-0.634	0.007	0.010	-0.003	0.001	4.295	69.560	77.080	114.680	261.320	4.295	0.791	-0.627	0.084	0.002	0.000	0.002		
4.300	94.920	105.000	105.000	304.920	4.300	0.782	-0.634	0.007	0.010	-0.003	0.001	4.300	69.560	74.730	117.500	261.790	4.300	0.791	-0.627	0.083	0.002	-0.001	0.002		
4.305	94.920	102.480	105.000	302.400	4.305	0.782	-0.634	0.007	0.010	-0.003	0.002	4.305	72.380	77.080	117.500	266.960	4.305	0.790	-0.626	0.082	0.003	-0.001	0.002		
4.310	97.440	102.480	102.480	302.400	4.310	0.781	-0.635	0.007	0.009	-0.002	0.002	4.310	69.560	77.080	114.680	261.320	4.310	0.791	-0.625	0.081	0.004	-0.002	0.002		
4.315	94.920	102.480	105.000	302.400	4.315	0.780	-0.636	0.007	0.007	-0.002	0.003	4.315	69.560	74.730	112.330	256.620	4.315	0.790	-0.625	0.080	0.005	-0.001	0.003		
4.320	97.440	102.480	105.000	304.920	4.320	0.780	-0.638	0.007	0.007	-0.001	0.003	4.320	69.560	77.080	114.680	261.320	4.320	0.790	-0.625	0.080	0.006	-0.001	0.003		
4.325	97.440	105.000	105.000	307.440	4.325	0.779	-0.639	0.008	0.007	-0.001	0.002	4.325	69.560	77.080	114.680	261.320	4.325	0.789	-0.625	0.080	0.007	0.001	0.004		
4.330	97.440	102.480	102.480	302.400	4.330	0.780	-0.639	0.008	0.007	-0.001	0.002	4.330	72.380	79.900	112.330	264.610	4.330	0.789	-0.625	0.080	0.009	0.002	0.004		
4.335	94.920	105.000	105.000	304.920	4.335	0.781	-0.639	0.009	0.006	-0.001	0.001	4.335	69.560	77.080	114.680	261.320	4.335	0.788	-0.626	0.080	0.010	0.004	0.004		
4.340	97.440	105.000	105.000	307.440	4.340	0.781	-0.637	0.009	0.006	0.000	0.001	4.340	69.560	77.080	114.680	261.320	4.340	0.787	-0.627	0.080	0.010	0.005	0.004		
4.345	94.920	105.000	105.000	304.920	4.345	0.782	-0.635	0.010	0.005	0.001	0.001	4.345	72.380	79.900	112.330	264.610	4.345	0.790	-0.626	0.086	0.007	0.003	0.001		
4.350	97.440	105.000	105.000	307.440	4.350	0.781	-0.633	0.010	0.004	0.002	0.000	4.350	69.560	77.080	117.500	264.140	4.350	0.789	-0.626	0.086	0.005	0.004	0.002		
4.355	94.600	99.760	104.920	299.280	4.355	0.781	-0.633	0.009	0.002	0.003	0.001	4.355	69.560	74.730	109.980	254.270	4.355	0.789	-0.627	0.086	0.003	0.004	0.002		
4.360	94.600	104.920	104.920	304.440	4.360	0.781	-0.632	0.009	0.001	0.003	0.001	4.360	72.380	74.730	114.680	261.790	4.360	0.789	-0.629	0.086	0.003	0.003	0.003	End measurement: test_poids	
4.365	97.180	104.920	104.920	307.020	4.365	0.782	-0.633	0.009	0.000	0.002	0.001	4.365	72.380	79.900	114.680	266.960	4.365	0.789	-0.631	0.085	0.002	0.002	0.003		
4.370	97.180	104.920	102.340	304.440	4.370	0.782	-0.633	0.008	0.000	0.001	0.002	4.370	72.380	79.900	117.500	269.780	4.370	0.789	-0.632	0.085	0.003	0.001	0.003		
4.375	94.600	104.920	107.500	307.020	4.375	0.781	-0.633	0.008	0.000	0.000	0.002	4.375	69.560	74.730	114.680	258.970	4.375	0.789	-0.632	0.084	0.003	-0.001	0.003		
4.380	97.180	104.920	104.920	307.020	4.380	0.781	-0.634	0.008	0.000	0.000	0.003	4.380	69.560	77.080	114.680	261.320	4.380	0.789	-0.632	0.084	0.003	-0.001	0.003		
4.385	94.600	104.920	104.920	304.440	4.385	0.781	-0.634	0.008	0.000	-0.001	0.003	4.385	69.560	74.730	112.330	256.620	4.385	0.788	-0.631	0.083	0.003	-0.002	0.002		
4.390	97.180	102.340	104.920	304.440	4.390	0.781	-0.635	0.008	0.000	-0.001	0.003	4.390	69.560	77.080	114.680	261.320	4.390	0.788	-0.629	0.083	0.002	-0.001	0.001		
4.395	94.600	102.340	102.340	299.280	4.395	0.782	-0.636	0.009	0.000	-0.001	0.004	4.395	67.210	74.730	114.680	256.620	4.395	0.787	-0.628	0.083	0.001	-0.001	0.000		
4.400	94.600	99.760	102.340	296.700	4.400	0.782	-0.637	0.009	-0.001	-0.001	0.004	4.400	-1.000	-1.000	-1.000	0.000	4.400	-	-	-	-	-	-		
4.405	94.600	102.340	104.920	301.860	4.405	0.781	-0.638	0.008	-0.002	0.000	0.004	4.405	-1.000	-1.000	-1.000	0.000	4.405	-	-	-	-	-	-		
4.410	94.920	102.480	102.480	299.880	4.410	0.781	-0.637	0.009	-0.003	0.001	0.004	4.410	-1.000	-1.000	-1.000	0.000	4.410	-	-	-	-	-	-		
4.415	97.440	102.480	105.000	304.920	4.415	0.781	-0.636	0.009	-0.004	0.001	0.004	4.415	-1.000	-1.000	-1.000	0.000	4.415	-	-	-	-	-	-		
4.420	94.920	102.480	105.000	302.400	4.420	0.782	-0.635	0.009	-0.004	0.001	0.004	4.420	-1.000	-1.000	-1.000	0.000	4.420	-	-	-	-	-	-		
4.425	94.920	105.000	102.480	302.400	4.425	0.782	-0.635	0.009	-0.005	0.001	0.004	4.425	-1.000	-1.000	-1.000	0.000	4.425	-	-	-	-	-	-		
4.430	94.920	105.000	105.000	304.920	4.430	0.782	-0.635	0.009	-0.005	0.000	0.004	4.430	-1.000	-1.000	-1.000	0.000	4.430	-	-	-	-	-	-		
4.435	94.920	105.000	105.000	304.920	4.435	0.781	-0.635	0.008	-0.005	0.000	0.004	4.435	-1.000	-1.000	-1.000	0.000	4.435	-	-	-	-	-	-		
4.440	97.440	102.480	105.000	304.920	4.440	0.781	-0.636	0.007	-0.004	0.000	0.004	4.440	-1.000	-1.000	-1.000	0.000	4.440	-	-	-	-	-	-		
4.445	97.440	102.480	105.000	304.920	4.445	0.781	-0.637	0.006	-0.004	0.000	0.004	4.445	-1.000	-1.000	-1.000	0.000	4.445	-	-	-	-	-	-		
4.450	97.440	102.480	102.480	302.400	4.450	0.781	-0.638	0.005	-0.003	0.000	0.004	4.450	-1.000	-1.000	-1.000	0.000	4.450	-	-	-	-	-	-		
4.455	97.440	102.480	102.480	302.400	4.455	0.781	-0.638	0.005	-0.001	0.001	0.004	4.455	72.380	74.730	114.680	261.790	4.455	0.788	-0.627	0.083	0.001	0.000	-0.001		
4.460	94.920	102.480	102.480	299.880	4.460	0.780	-0.638	0.005	0.000	0.001	0.004	4.460	69.560	77.080	114.680	261.320	4.460	0.789	-0.626	0.082	0.001	0.001	-0.001		
4.465	97.440	105.000	105.000	307.440	4.465	0.780	-0.637	0.005	0.001	0.001	0.004	4.465	67.210	79.900	114.680	261.790	4.465	0.790	-0.625	0.082	0.001	0.002	-0.001		
4.470	97.440	102.480	105.000	304.920	4.470	0.779	-0.636	0.006	0.002	0.002	0.004	4.470	69.560	77.080	112.330	258.970	4.470	0.791	-0.625	0.082	0.002	0.002	-0.001		
4.475	97.440	105.000	102.480	304.920	4.475	0.780	-0.636	0.007	0.002	0.002	0.004	4.475	72.380	77.080	117.500	266.960	4.475	0.791	-0.626	0.083	0.003	0.002	0.000		
4.480	94.920	105.000	105.000	304.920	4.480	0.780	-0.635	0.008	0.002	0.002	0.003	4.480	72.380	74.730	112.330	259.440	4.480	0.791	-0.627	0.083	0.003	0.001	0.000		
4.485	94.920	105.000	105.000	304.920	4.485	0.781	-0.635	0.008	0.002	0.002	0.003	4.490	69.560	77.080	114.680	261.320	4.490	0.789	-0.628	0.084	0.003	0.001	0.000		
4.490	97.440	102.480	105.000	304.920	4.490	0.781	-0.634	0.009	0.001	0.002	0.003	4.490	69.560	77.080	114.680	261.320	4.490	0.789	-0.628	0.084	0.003	0.001	0.000		
4.500	92.400	102.480	105.000	299.880	4.500	0.781	-0.635	0.009	0.000	0.002	0.003	4.495	69.560	77.080	114.680	261.320	4.495	0.788	-0.629	0.085	0.002	0.002	0.000		
4.500	92.400	102.480	105.000	299.880	4.500	0.781	-0.635	0.009	0.000	0.002	0.003	4.500	69.560	79.900	114.680	264.140	4.500	0.787	-0.629	0.086	0.001	0.002	0.000		
4.505	97.440	102.480	105.000	304.920	4.505	0.780	-0.635	0.008	-0.001	0.002	0.004	4.505	72.380	77.080	112.330	261.790	4.505	0.787	-0.629	0.086	-0.001	0.002	0.000		
4.510	97.440	105.000	105.000	307.440	4.510	0.780	-0.636	0.007	-0.001	0.003	0.004	4.510	72.380	77.080	114.680	264.140	4.510	0.788	-0.628	0.086	-0.002	0.001	0.000		
4.515	94.920	102.480	102.480	299.880	4.515	0.779	-0.637	0.006	-0.002	0.003	0.004	4.515	72.380	77.080	117.500	266.960	4.515	0.787	-0.626	0.084	0.000	-0.001	0.000		
4.520	94.920	102.480	105.000	302.400	4.520	0.780	-0.637	0.006	-0.002	0.003	0.004	4.520	69.560	77.080	114.680	261.320	4.520	0.788	-0.626	0.083	0.000	-0.001	0.001		
4.525	94.920	102.480	102.480	299.880	4.525	0.780	-0.638	0.005	-0.001	0.004	0.004	4.525	69.560	77.080	112.330	258.970	4.525	0.788	-0.626	0.083	0.000	-0.001	0.001		
4.530	97.440	102.480	102.480	302.400	4.530	0.780	-0.638	0.005	-0.001	0.005	0.004	4.530	69.560	77.080	114.680	261.320	4.530	0.789	-0.627	0.082	0.001	0.000	0.001		
4.535	94.920	102.480	105.000	302.400	4.535	0.781	-0.637	0.004	0.000	0.005	0.003	4.535	69.560	74.730	114.680	258.970	4.535	0.789	-0.627	0.081	0.001	0.000	0.001		
4.540	94.920	102.480	105.000	302.400	4.540	0.780	-0.637	0.004	0.001	0.006	0.003	4.540	69.560	77.080	117.500	264.140	4.540	0.789	-0.627	0.081	0.001	0.001	0.001		
4.545	97.440	105.000	102.480	304.920	4.545	0.781	-0.636	0.005	0.001	0.007	0.003	4.545	69.560	77.080	117.500	264.140	4.545	0.789	-0.627	0.081	0.001	0.002	0.001		
4.550	97.440	99.960	102.480	299.880	4.550	0.781	-0.636	0.005	0.002	0.007	0.002	4.550	69.560	74.730	114.680	258.970	4.550	0.789	-0.627	0.083	0.002	0.003	0.001		
4.555	94.920	102.480	102.480	299.880	4.555	0.781	-0.635	0.006	0.002	0.007	0.001	4.555	69.560	79.900	114.680	264.140	4.555	0.789	-0.627	0.083	0.003	0.003	0.001		
4.560	97.440	102.480	105.000	304.920	4.560	0.780	-0.635	0.006	0.002	0.007	0.001	4.560	72.380	77.080	114.680	264.140	4.560	0.788	-0.627	0.085	0.003	0.004	0.001		
4.565	94.920	99.960	102.480	297.360	4.565	0.780	-0.635	0.007	0.002	0.007	0.001	4.565	69.560	77.080	114.680	261.320	4.565	0.788	-0.627	0.085	0.003	0.004	0.001		
4.570	97.440	102.480	105.000	304.920	4.570	0.779	-0.634	0.008	0.002	0.007	0.001	4.570	-1.000	-1.000	-1.000	0.000	4.570	-	-	-	-	-	-		
4.575	97.440	102.480	102.480	302.400	4.575	0.780	-0.634	0.009	0.002	0.007	0.001	4.575	-1.000	-1.000	-1.000	0.000	4.575	-	-	-	-	-	-		
4.580	97.440	105.000	105.000	307.440	4.580	0.780	-0.634	0.010	0.001	0.007	0.001	4.580	-1.000	-1.000	-1.000	0.000	4.580	-	-	-	-	-	-		
4.585	94.920	102.480	99.960	297.360	4.585	0.781	-0.634	0.010	0.001	0.007	0.001	4.585	-1.000	-1.000	-1.000	0.000	4.585	-	-	-	-	-	-		
4.590	97.440	102.480	102.480	302.400	4.590	0.781	-0.634	0.011	0.000	0.007	0.001	4.590	-1.000	-1.000	-1.000	0.000	4.590	-	-	-	-	-	-		
4.595	97.440	102.480	102.480	302.400	4.595	0.781	-0.635	0.010	0.000	0.006	0.002	4.595	-1.000	-1.000	-1.000	0.000	4.595	-	-	-	-	-	-		
4.600	94.920	99.960	102.480	297.360	4.600	0.781	-0.635	0.009	0.000	0.005	0.003	4.600	-1.000	-1.000	-1.000	0.000	4.600	-	-	-	-	-	-		
4.605	97.440	102.480	105.000	304.920	4.605	0.780	-0.635	0.009	0.000	0.004	0.003	4.605	-1.000	-1.000	-1.000	0.000	4.605	-	-	-	-	-	-		
4.610	97.440	102.480	102.480	302.400	4.610	0.780	-0.635	0.008	0.000	0.002	0.004	4.610	-1.000	-1.000	-1.000	0.000	4.610	-	-	-	-	-	-		
4.615	97.440	99.960	102.480	299.880	4.615	0.780	-0.634	0.007	0.000	0.001	0.004	4.615	-1.000	-1.000	-1.000	0.000	4.615	-	-	-	-	-	-		
4.620	97.440	102.480	105.000	304.920	4.620	0.780	-0.634	0.006	0.001	0.000	0.004	4.620	-1.000	-1.000	-1.000	0.000	4.620	-	-	-	-	-	-		
4.625	97.440	102.480	99.960	299.880	4.625	0.780	-0.634	0.006	0.001	0.000	0.004	4.625	72.380	77.080	114.680	264.140	4.625	0.788	-0.627	0.085	0.003	0.004	0.001		
4.630	97.440	102.480	105.000	304.920	4.630	0.780	-0.634	0.006	0.001	0.000	0.004	4.630	72.380	77.080	117.500	266.960	4.630	0.789	-0.626	0.085	0.003	0.004	0.002		
4.635	97.440	102.480	99.960	299.880	4.635	0.781	-0.635	0.008	0.005	-0.001	0.003	4.635	72.380	77.080	117.500	266.960	4.635	0.789	-0.626	0.084	0.004	0.005	0.002		
4.640	97.440	99.960	105.000	302.400	4.640	0.781	-0.635	0.008	0.004	-0.001	0.003	4.640	69.560	77.080	117.500	264.140	4.640	0.789	-0.626	0.083	0.005	0.004	0.002		
4.645	97.440	99.960	102.480	299.880	4.645	0.780	-0.636	0.008	0.003	0.000	0.003	4.645	69.560	77.080	114.680	261.320	4.645	0.789	-0.625	0.083	0.007	0.004	0.001		
4.650	94.920	99.960	99.960	294.840	4.650	0.780	-0.637	0.008	0.002	0.001	0.003	4.650	72.380	74.730	117.500	264.610	4.650	0.789	-0.626	0.082	0.009	0.004	0.001		
4.655	97.440	102.480	102.480	302.400	4.655	0.779	-0.638	0.008	0.001	0.002	0.002	4.655	69.560	77.080	114.680	261.320	4.655	0.790	-0.626	0.083	0.011	0.004	0.001		
4.660	94.920	99.960	102.480	297.360	4.660	0.780	-0.638	0.008	0.000	0.002	0.002	4.660	72.380	77.080	114.680	264.140	4.660	0.791	-0.627	0.084	0.012	0.003	0.001		
4.665	94.920	102.480	99.960	297.360	4.665	0.780	-0.638	0.008	0.000	0.003	0.001	4.665	69.560	77.080	117.500	264.140	4.665	0.791	-0.628	0.085	0.012	0.003	0.001		
4.670	97.440	105.000	102.480	304.920	4.670	0.781	-0.638	0.008	-0.001	0.003	0.001	4.670	69.560	77.080	117.500	264.140	4.670	0.791	-0.629	0.087	0.011	0.003	0.001		
4.675	97.440	102.480	105.000	304.920	4.675	0.781	-0.637	0.008	-0.001	0.003	0.000	4.675	72.380	77.080	114.680	264.140	4.675	0.790	-0.629	0.088	0.009	0.004	0.001		
4.680	97.440	102.480	102.480	302.400	4.680	0.782	-0.637	0.007	-0.001	0.003	0.000	4.685	69.600	74.880	114.720	259.200	4.685	0.790	-0.629	0.088	0.005	0.005	0.001		
4.685	94.920	102.480	102.480	299.880	4.685	0.782	-0.636	0.006	-0.001	0.003	-0.001	4.685	69.600	74.880	114.720	259.200	4.685	0.790	-0.629	0.088	0.005	0.005	0.001		
4.690	-1.000	-1.000	-1.000	0.000	4.690	-	-	-	-	-	-	4.690	69.600	77.280	114.720	261.600	4.690	0.790	-0.628	0.088	0.002	0.006	0.001		
4.695	-1.000	-1.000	-1.000	0.000	4.695	-	-	-	-	-	-	4.695	72.480	79.680	117.120	269.280	4.695	0.790	-0.627	0.088	-0.001	0.007	0.001		
4.700	-1.000	-1.000	-1.000	0.000	4.700	-	-	-	-	-	-	4.700	69.600	77.280	117.120	264.000	4.700	0.790	-0.626	0.088	-0.004	0.007	0.001		
4.705	-1.000	-1.000	-1.000	0.000	4.705	-	-	-	-	-	-	4.705	69.600	77.280	117.120	264.000	4.705	0.790	-0.626	0.087	-0.005	0.007	0.001		
4.710	-1.000	-1.000	-1.000	0.000	4.710	-	-	-	-	-	-	4.710	69.600	77.280	114.720	261.600	4.710	0.790	-0.626	0.086	-0.004	0.005	0.001		
4.715	-1.000	-1.000	-1.000	0.000	4.715	-	-	-	-	-	-	4.715	69.600	77.280	117.120	264.000	4.715	0.790	-0.626	0.086	-0.004	0.003	0.001		
4.720	-1.000	-1.000	-1.000	0.000	4.720	-	-	-	-	-	-	4.720	69.600	77.280	114.720	261.600	4.720	0.790	-0.627	0.085	-0.002	0.002	0.001		
4.725	-1.000	-1.000	-1.000	0.000	4.725	-	-	-	-	-	-	4.725	69.600	77.280	120.000	266.880	4.725	0.790	-0.628	0.086	-0.001	0.001	0.001		
4.730	-1.000	-1.000	-1.000	0.000	4.730	-	-	-	-	-	-	4.730	69.600	77.280	114.720	261.600	4.730	0.790	-0.629	0.085	-0.001	0.000	0.001		
4.735	-1.000	-1.000	-1.000	0.000	4.735	-	-	-	-	-	-	4.735	69.600	77.280	117.120	264.000	4.735	0.790	-0.629	0.085	-0.001	0.000	0.001		
4.740	-1.000	-1.000	-1.000	0.000	4.740	-	-	-	-	-	-	4.740	72.380	77.080	117.500	266.960	4.740	0.790	-0.629	0.085	-0.001	-0.001	0.001		
4.745	94.710	102.500	102.500	299.710	4.745	0.782	-0.636	0.006	-0.001	0.003	-0.001	4.745	69.560	77.080	117.500	264.140	4.745	0.790	-0.628	0.085	-0.002	-0.001	0.001		
4.750	97.170	102.500	102.500	302.170	4.750	0.782	-0.636	0.005	-0.001	0.003	-0.001	4.750	69.560	77.080	117.500	264.140	4.750	0.790	-0.627	0.085	-0.002	-0.001	0.001		
4.755	97.170	102.500	102.500	302.170	4.755	0.782	-0.635	0.005	0.000	0.003	0.000	4.755	69.560	77.080	117.500	264.140	4.755	0.790	-0.627	0.084	-0.002	-0.001	0.001		
4.760	97.170	102.500	102.500	302.170	4.760	0.781	-0.634	0.005	0.001	0.003	0.000	4.760	69.560	77.080	117.500	264.140	4.760	0.789	-0.627	0.084	-0.002	-0.001	0.001		
4.765	97.170	102.500	102.500	302.170	4.765	0.781	-0.633	0.005	0.002	0.003	0.000	4.765	69.560	77.080	117.500	264.140	4.765	0.789	-0.627	0.084	-0.001	-0.002	0.001		
4.770	97.170	99.630	102.500	299.300	4.770	0.780	-0.633	0.006	0.003	0.002	0.000	4.770	69.560	77.080	117.500	264.140	4.770	0.789	-0.627	0.084	0.000	-0.002	0.001		
4.775	97.170	102.500	102.500	302.170	4.775	0.781	-0.633	0.007	0.004	0.002	0.001	4.775	69.560	77.080	117.500	264.140	4.775	0.788	-0.627	0.084	0.001	-0.003	0.001		
4.780	94.710	102.500	102.500	299.710	4.780	0.781	-0.633	0.007	0.005	0.001	0.001	4.780	69.560	77.080	117.500	264.140	4.780	0.788	-0.627	0.084	0.001	-0.003	0.001		
4.785	97.170	99.630	99.630	296.430	4.785	0.781	-0.634	0.006	0.006	0.001	0.001	4.785	69.560	77.080	117.500	264.140	4.785	0.788	-0.628	0.085	0.001	-0.002	0.001		
4.790	94.710	102.500	102.500	299.710	4.790	0.781	-0.636	0.006	0.007	0.001	0.001	4.790	67.210	77.080	117.500	261.790	4.790	0.789	-0.628	0.085	0.000	-0.001	0.001		
4.795	97.170	102.500	102.500	302.170	4.795	0.780	-0.637	0.006	0.007	0.000	0.000	4.795	69.600	77.280	117.120	264.000	4.795	0.790	-0.627	0.084	-0.001	0.000	0.001		
4.800	97.440	102.480	102.480	302.400	4.800	0.779	-0.639	0.006	0.007	0.000	0.000	4.800	69.600	74.880	117.120	261.600	4.800	0.790	-0.625	0.084	-0.002	0.001	0.001		
4.805	97.440	105.000	102.480	304.920	4.805	0.778	-0.639	0.006	0.007	0.000	-0.001	4.805	72.480	79.680	114.720	266.880	4.805	0.791	-0.625	0.083	-0.003	0.002	0.001		
4.810	94.920	99.960	105.000	299.880	4.810	0.778	-0.639	0.006	0.007	0.001	-0.001	4.810	69.600	77.280	117.120	264.000	4.810	0.790	-0.624	0.083	-0.004	0.002	0.001		
4.815	94.920	102.480	102.480	299.880	4.815	0.778	-0.638	0.006	0.006	0.001	-0.002	4.815	69.600	77.280	120.000	266.880	4.815	0.790	-0.625	0.083	-0.003	0.002	0.002		
4.825	97.440	102.480	105.000	304.920	4.825	0.778	-0.637	0.006	0.006	0.001	-0.003	4.820	69.600	77.280	117.120	264.000	4.820	0.790	-0.625	0.083	-0.003	0.002	0.002		
4.825	97.440	102.480	105.000	304.920	4.825	0.778	-0.637	0.006	0.006	0.001	-0.003	4.825	69.600	77.280	117.120	264.000	4.825	0.790	-0.627	0.083	-0.002	0.001	0.003		
4.830	94.920	102.480	102.480	299.880	4.830	0.779	-0.636	0.006	0.005	0.001	-0.003	4.830	69.600	77.280	117.120	264.000	4.830	0.790	-0.627	0.083	-0.001	0.001	0.003		
4.835	97.440	99.960	102.480	299.880	4.835	0.779	-0.636	0.007	0.004	0.002	-0.003	4.835	69.600	77.280	117.120	264.000	4.835	0.790	-0.628	0.083	0.001	0.001	0.003		
4.840	97.440	102.480	99.960	299.880	4.840	0.780	-0.635	0.007	0.004	0.003	-0.003	4.840	69.600	77.280	117.120	264.000	4.840	0.789	-0.629	0.083	0.002	0.001	0.004		
4.845	97.440	102.480	102.480	302.400	4.845	0.780	-0.635	0.007	0.003	0.003	-0.003	4.845	69.600	77.280	117.120	264.000	4.845	0.789	-0.629	0.084	0.004	0.001	0.004		
4.850	97.440	102.480	102.480	302.400	4.850	0.781	-0.634	0.007	0.004	0.003	-0.002	4.850	67.210	77.080	117.500	261.790	4.850	0.789	-0.628	0.084	0.005	0.001	0.004		
4.855	94.920	102.480	105.000	302.400	4.855	0.781	-0.634	0.008	0.004	0.002	-0.002	4.855	69.560	74.730	117.500	261.790	4.855	0.789	-0.627	0.085	0.005	0.001	0.004		
4.860	97.440	102.480	102.480	302.400	4.860	0.782	-0.633	0.008	0.004	0.002	-0.002	4.860	72.380	77.080	117.500	266.960	4.860	0.790	-0.626	0.085	0.005	0.001	0.004		
4.865	97.440	102.480	102.480	302.400	4.865	0.781	-0.634	0.007	0.004	0.001	-0.001	4.865	69.560	77.080	117.500	264.140	4.865	0.790	-0.626	0.085	0.006	0.001	0.004		
4.870	97.440	102.480	102.480	302.400	4.870	0.780	-0.634	0.008	0.004	0.001	-0.001	4.870	69.560	77.080	117.500	264.140	4.870	0.790	-0.626	0.085	0.006	0.001	0.004		
4.875	97.440	102.480	102.480	302.400	4.875	0.779	-0.635	0.007	0.004	0.001	-0.001	4.880	69.560	77.080	117.500	264.140	4.880	0.790	-0.627	0.086	0.007	0.000	0.003		
4.880	97.440	105.000	105.000	307.440	4.880	0.779	-0.636	0.007	0.004	0.001	-0.001	4.880	69.560	77.080	117.500	264.140	4.880	0.790	-0.627	0.086	0.007	0.000	0.003		
4.885	97.440	99.960	105.000	302.400	4.885	0.779	-0.636	0.007	0.004	0.000	-0.001	4.885	69.560	74.730	117.500	261.790	4.885	0.789	-0.627	0.086	0.007	0.000	0.003		
4.890	94.920	102.480	105.000	302.400	4.890	0.780	-0.636	0.007	0.005	0.000	-0.001	4.890	69.560	74.730	114.680	258.970	4.890	0.789	-0.628	0.087	0.007	-0.001	0.003		
4.895	97.440	102.480	102.480	302.400	4.895	0.780	-0.635	0.007	0.005	0.000	-0.001	4.895	72.380	79.900	117.500	269.780	4.895	0.789	-0.628	0.086	0.006	-0.001	0.003		
4.900	97.440	102.480	102.480	302.400	4.900	0.781	-0.635	0.007	0.004	0.000	-0.001	4.900	69.560	77.080	114.680	261.320	4.900	0.788	-0.627	0.085	0.005	-0.001	0.003		
4.905	94.920	102.480	105.000	302.400	4.905	0.780	-0.635	0.008	0.004	0.000	-0.002	4.905	69.560	77.080	114.680	261.320	4.905	0.788	-0.627	0.085	0.004	-0.001	0.003		
4.910	94.920	102.480	102.480	299.880	4.910	0.780	-0.634	0.008	0.003	0.001	-0.001	4.910	69.560	77.080	114.680	261.320	4.910	0.788	-0.629	0.085	0.004	0.003	0.005		
4.915	97.180	102.340	104.920	304.440	4.915	0.780	-0.634	0.009	0.002	0.001	-0.001	4.915	67.210	79.900	114.680	261.790	4.915	0.788	-0.629	0.084	0.004	0.003	0.005		
4.920	97.180	102.340	104.920	304.440	4.920	0.780	-0.634	0.009	0.001	0.002	-0.001	4.920	69.560	74.730	117.500	261.790	4.920	0.789	-0.629	0.085	0.003	0.002	0.005		
4.925	94.600	102.340	102.340	299.280	4.925	0.779	-0.635	0.009	0.001	0.002	-0.001	4.925	72.380	77.080	114.680	264.140	4.925	0.789	-0.629	0.085	0.002	0.002	0.005		
4.930	94.600	102.340	102.340	299.280	4.930	0.779	-0.635	0.009	0.002	0.002	-0.001	4.930	69.560	77.080	117.500	264.140	4.930	0.789	-0.628	0.086	0.002	0.002	0.004		
4.935	94.600	104.920	104.920	304.440	4.935	0.780	-0.635	0.008	0.003	0.002	-0.001	4.935	72.380	77.080	117.500	266.960	4.935	0.789	-0.628	0.086	0.001	0.002	0.003		
4.940	94.600	102.340	104.920	301.860	4.940	0.780	-0.635	0.008	0.004	0.001	0.000	4.940	67.210	77.080	114.680	258.970	4.940	0.789	-0.628	0.086	0.000	0.002	0.002		
4.945	94.600	104.920	107.500	307.020	4.945	0.781	-0.635	0.008	0.004	0.001	0.000	4.945	69.560	77.080	114.680	261.320	4.945	0.790	-0.628	0.086	0.000	0.002	0.002		
4.950	94.600	102.340	102.340	299.280	4.950	0.781	-0.635	0.008	0.004	0.001	-0.001	4.950	69.560	77.080	117.500	264.140	4.950	0.790	-0.627	0.086	0.000	0.001	0.002		
4.955	94.600	102.340	104.920	301.860	4.955	0.781	-0.636	0.007	0.003	0.001	-0.001	4.955	69.560	79.900	114.680	264.140	4.955	0.790	-0.627	0.086	0.000	0.001	0.002		
4.960	94.600	104.920	102.340	301.860	4.960	0.781	-0.637	0.007	0.002	0.001	-0.001	4.960	69.560	77.080	117.500	264.140	4.960	0.789	-0.628	0.085	0.001	0.000	0.001		
4.965	94.600	104.920	102.340	301.860	4.965	0.780	-0.637	0.006	0.000	0.001	-0.001	4.965	-1.000	-1.000	-1.000	0.000	4.965	-	-	-	-	-	-		
4.970	97.180	104.920	104.920	307.020	4.970	0.780	-0.637	0.007	-0.001	0.001	-0.001	4.970	-1.000	-1.000	-1.000	0.000	4.970	-	-	-	-	-	-		
4.975	94.600	104.920	104.920	304.440	4.975	0.780	-0.636	0.007	-0.001	0.001	-0.001	4.975	-1.000	-1.000	-1.000	0.000	4.975	-	-	-	-	-	-		
4.980	94.600	104.920	104.920	304.440	4.980	0.781	-0.635	0.006	-0.002	0.001	-0.001	4.980	-1.000	-1.000	-1.000	0.000	4.980	-	-	-	-	-	-		
4.985	94.600	104.920	107.500	307.020	4.985	0.781	-0.634	0.006	-0.002	0.001	-0.001	4.985	-1.000	-1.000	-1.000	0.000	4.985	-	-	-	-	-	-		
4.990	94.600	102.340	104.920	301.860	4.990	0.781	-0.634	0.005	-0.002	0.001	-0.001	4.990	-1.000	-1.000	-1.000	0.000	4.990	-	-	-	-	-	-		
4.995	94.600	102.340	104.920	301.860	4.995	0.782	-0.634	0.005	-0.002	0.002	-0.001	4.995	-1.000	-1.000	-1.000	0.000	4.995	-	-	-	-	-	-		
5.000	94.600	102.340	102.340	299.280	5.000	0.782	-0.634	0.005	-0.002	0.002	-0.001	5.000	-1.000	-1.000	-1.000	0.000	5.000	-	-	-	-	-	-		
5.005	94.600	104.920	104.920	304.440	5.005	0.782	-0.634	0.005	-0.002	0.002	0.000	5.005	-1.000	-1.000	-1.000	0.000	5.005	-	-	-	-	-	-		
5.010	94.600	102.340	104.920	301.860	5.010	0.782	-0.633	0.006	-0.001	0.003	0.000	5.010	-1.000	-1.000	-1.000	0.000	5.010	-	-	-	-	-	-		
5.015	97.180	102.340	104.920	304.440	5.015	0.782	-0.633	0.006	-0.001	0.003	0.000	5.015	-1.000	-1.000	-1.000	0.000	5.015	-	-	-	-	-	-		
5.020	94.600	104.920	104.920	304.440	5.020	0.781	-0.633	0.007	0.000	0.002	0.000	5.020	72.380	79.900	117.500	269.780	5.020	0.789	-0.628	0.085	0.002	-0.001	0.001		
5.025	94.600	104.920	104.920	304.440	5.025	0.782	-0.633	0.007	0.001	0.002	0.001	5.025	72.380	77.080	114.680	264.140	5.025	0.789	-0.628	0.084	0.002	-0.001	0.001		
5.030	94.600	102.340	104.920	301.860	5.030	0.782	-0.633	0.007	0.001	0.002	0.001	5.030	69.560	77.080	114.680	261.320	5.030	0.789	-0.628	0.084	0.003	-0.001	0.001		
5.035	94.600	104.920	104.920	304.440	5.035	0.782	-0.634	0.007	0.002	0.002	0.001	5.035	69.560	77.080	114.680	261.320	5.035	0.789	-0.627	0.083	0.003	-0.001	0.001		
5.040	94.600	104.920	104.920	304.440	5.040	0.782	-0.635	0.007	0.002	0.002	0.001	5.040	72.380	77.080	114.680	264.140	5.040	0.789	-0.626	0.083	0.002	0.000	0.001		
5.045	94.600	102.340	104.920	301.860	5.045	0.782	-0.636	0.007	0.003	0.002	0.001	5.045	69.560	77.080	114.680	261.320	5.045	0.789	-0.626	0.083	0.002	0.001	0.002		
5.050	92.450	102.340	104.920	299.710	5.050	0.782	-0.636	0.007	0.003	0.001	0.001	5.050	72.380	77.080	114.680	264.140	5.050	0.788	-0.626	0.083	0.002	0.001	0.002		
5.055	94.600	104.920	107.500	307.020	5.055	0.783	-0.637	0.006	0.003	0.000	0.001	5.055	69.560	77.080	114.680	261.320	5.055	0.789	-0.627	0.084	0.002	0.002	0.003		
5.060	94.600	104.920	104.920	304.440	5.060	0.783	-0.637	0.006	0.003	0.000	0.001	5.060	69.560	77.080	112.330	258.970	5.060	0.788	-0.628	0.085	0.001	0.002	0.003		
5.065	94.600	104.920	104.920	304.440	5.065	0.782	-0.638	0.006	0.003	0.000	0.001	5.065	69.560	79.900	114.680	264.140	5.065	0.788	-0.628	0.086	0.001	0.002	0.003		
5.070	92.450	104.920	104.920	302.290	5.070	0.782	-0.638	0.006	0.003	0.000	0.000	5.075	69.560	77.080	114.680	261.320	5.075	0.788	-0.629	0.087	0.001	0.003	0.003		
5.075	92.450	104.920	107.500	304.870	5.075	0.781	-0.637	0.007	0.003	0.001	0.000	5.075	69.560	77.080	114.680	261.320	5.075	0.788	-0.629	0.087	0.001	0.003	0.003		
5.080	92.450	104.920	104.920	302.290	5.080	0.781	-0.636	0.007	0.003	0.001	0.000	5.080	69.560	77.080	112.330	258.970	5.080	0.787	-0.629	0.087	0.001	0.002	0.003		
5.085	94.600	104.920	107.500	307.020	5.085	0.780	-0.635	0.007	0.003	0.002	0.000	5.085	69.560	79.900	117.500	266.960	5.085	0.787	-0.629	0.087	0.002	0.002	0.002		
5.090	92.450	107.500	107.500	307.450	5.090	0.779	-0.634	0.007	0.004	0.002	0.000	5.090	69.560	77.080	114.680	261.320	5.090	0.788	-0.629	0.088	0.001	0.001	0.002		
5.095	92.450	104.920	104.920	302.290	5.095	0.779	-0.634	0.007	0.004	0.002	0.000	5.095	69.560	77.080	114.680	261.320	5.095	0.788	-0.629	0.087	0.001	0.001	0.002		
5.100	94.600	104.920	104.920	304.440	5.100	0.779	-0.633	0.007	0.004	0.001	0.001	5.100	69.560	77.080	112.330	258.970	5.100	0.789	-0.630	0.087	0.001	-0.001	0.002		
5.105	92.450	102.340	104.920	299.710	5.105	0.779	-0.633	0.007	0.004	0.001	0.001	5.105	69.560	74.730	112.330	256.620	5.105	0.789	-0.630	0.087	0.001	-0.002	0.001		
5.110	92.450	104.920	107.500	304.870	5.110	0.779	-0.632	0.007	0.004	0.001	0.002	5.110	69.560	82.250	114.680	266.490	5.110	0.789	-0.630	0.086	0.001	-0.003	0.001		
5.115	94.600	104.920	107.500	307.020	5.115	0.779	-0.633	0.007	0.003	0.002	0.002	5.115	72.380	77.080	114.680	264.140	5.115	0.789	-0.629	0.085	0.001	-0.004	0.001		
5.120	89.870	104.920	107.500	302.290	5.120	0.780	-0.634	0.007	0.003	0.002	0.002	5.120	72.380	77.080	114.680	264.140	5.120	0.790	-0.628	0.084	0.001	-0.005	0.001		
5.125	92.450	107.500	107.500	307.450	5.125	0.780	-0.635	0.007	0.003	0.002	0.002	5.125	69.560	77.080	114.680	261.320	5.125	0.790	-0.626	0.083	0.000	-0.005	0.000		
5.130	94.600	104.920	107.500	307.020	5.130	0.781	-0.635	0.007	0.003	0.002	0.001	5.130	72.380	79.900	112.330	264.610	5.130	0.790	-0.625	0.082	0.000	-0.005	0.000		
5.135	94.600	104.920	104.920	304.440	5.135	0.782	-0.635	0.007	0.003	0.002	0.001	5.135	69.920	77.280	112.240	259.440	5.135	0.790	-0.624	0.081	0.001	-0.004	0.001		
5.145	94.600	104.920	104.920	304.440	5.145	0.782	-0.634	0.007	0.003	0.002	0.001	5.140	69.920	79.580	115.000	264.500	5.140	0.790	-0.624	0.081	0.002	-0.004	0.001		
5.145	94.600	104.920	104.920	304.440	5.145	0.782	-0.634	0.007	0.003	0.002	0.001	5.145	72.220	74.980	115.000	262.200	5.145	0.790	-0.624	0.080	0.003	-0.004	0.002		
5.150	94.600	104.920	104.920	304.440	5.150	0.781	-0.634	0.007	0.004	0.001	0.001	5.150	69.920	79.580	115.000	264.500	5.150	0.789	-0.625	0.081	0.004	-0.004	0.002		
5.155	94.600	104.920	104.920	304.440	5.155	0.781	-0.634	0.008	0.004	0.001	0.001	5.155	72.220	77.280	115.000	264.500	5.155	0.789	-0.626	0.082	0.005	-0.003	0.002		
5.160	94.600	107.500	104.920	307.020	5.160	0.780	-0.634	0.008	0.005	0.000	0.002	5.160	69.920	77.280	115.000	262.200	5.160	0.789	-0.628	0.082	0.006	-0.002	0.002		
5.165	92.450	104.920	107.500	304.870	5.165	0.780	-0.634	0.009	0.005	0.000	0.002	5.165	69.920	77.280	112.240	259.440	5.165	0.788	-0.629	0.083	0.007	-0.001	0.002		
5.170	94.600	102.340	104.920	301.860	5.170	0.779	-0.634	0.008	0.004	-0.001	0.002	5.170	72.220	79.580	115.000	266.800	5.170	0.789	-0.628	0.083	0.007	0.001	0.001		
5.175	92.450	102.340	102.340	297.130	5.175	0.779	-0.634	0.008	0.004	0.000	0.002	5.175	72.220	79.580	112.240	264.040	5.175	0.789	-0.628	0.083	0.009	0.002	0.001		
5.180	94.600	104.920	104.920	304.440	5.180	0.780	-0.635	0.007	0.003	0.000	0.002	5.180	69.920	77.280	112.240	259.440	5.180	0.790	-0.627	0.084	0.009	0.003	0.001		
5.185	92.450	104.920	107.500	304.870	5.185	0.780	-0.635	0.007	0.003	0.000	0.002	5.185	69.920	77.280	112.240	259.440	5.185	0.790	-0.627	0.085	0.010	0.003	0.001		
5.190	97.180	104.920	107.500	309.600	5.190	0.780	-0.636	0.006	0.002	0.000	0.002	5.190	69.920	77.280	115.000	262.200	5.190	0.789	-0.630	0.084	0.000	0.004	0.002		
5.195	92.450	104.920	107.500	304.870	5.195	0.780	-0.636	0.006	0.002	0.000	0.002	5.195	69.920	79.580	115.000	264.500	5.195	0.789	-0.630	0.084	0.000	0.003	0.002		
5.200	94.600	104.920	107.500	307.020	5.200	0.780	-0.637	0.006	0.001	0.000	0.002	5.200	69.920	77.280	112.240	259.440	5.200	0.789	-0.630	0.084	0.000	0.003	0.002		
5.205	94.600	104.920	104.920	304.440	5.205	0.781	-0.636	0.007	0.001	0.001	0.002	5.205	69.920	79.580	115.000	264.500	5.205	0.789	-0.630	0.084	-0.001	0.003	0.002		
5.210	94.600	102.340	104.920	301.860	5.210	0.781	-0.636	0.007	0.001	0.001	0.002	5.210	67.160	77.280	112.240	256.680	5.210	0.789	-0.629	0.084	-0.002	0.004	0.002		
5.215	94.600	104.920	104.920	304.440	5.215	0.781	-0.635	0.007	0.000	0.001	0.002	5.215	69.920	79.580	112.240	261.740	5.215	0.788	-0.629	0.084	-0.003	0.004	0.002		
5.220	92.450	104.920	104.920	302.290	5.220	0.782	-0.635	0.007	-0.001	0.002	0.002	5.220	72.220	79.580	115.000	266.800	5.220	0.787	-0.629	0.085	-0.004	0.005	0.002		
5.225	94.600	104.920	107.500	307.020	5.225	0.782	-0.634	0.008	-0.002	0.002	0.002	5.225	69.920	79.580	109.940	259.440	5.225	0.786	-0.628	0.086	-0.006	0.006	0.001		
5.230	92.450	104.920	104.920	302.290	5.230	0.782	-0.634	0.008	-0.003	0.003	0.002	5.230	72.220	79.580	112.240	264.040	5.230	0.786	-0.627	0.086	-0.007	0.007	0.001		
5.235	94.600	104.920	107.500	307.020	5.235	0.782	-0.634	0.008	-0.004	0.003	0.002	5.235	69.920	79.580	112.240	261.740	5.235	0.786	-0.626	0.086	-0.009	0.009	0.001		
5.240	92.450	104.920	104.920	302.290	5.240	0.782	-0.634	0.008	-0.005	0.003	0.002	5.240	69.920	79.580	112.240	261.740	5.240	0.787	-0.626	0.086	-0.009	0.010	0.001		
5.245	92.450	104.920	107.500	304.870	5.245	0.782	-0.633	0.007	-0.005	0.002	0.003	5.245	-1.000	-1.000	-1.000	0.000	5.245	-	-	-	-	-	-		
5.250	94.600	104.920	107.500	307.020	5.250	0.782	-0.632	0.007	-0.006	0.002	0.003	5.250	-1.000	-1.000	-1.000	0.000	5.250	-	-	-	-	-	-		
5.255	92.450	107.500	104.920	304.870	5.255	0.782	-0.632	0.006	-0.007	0.002	0.003	5.255	-1.000	-1.000	-1.000	0.000	5.255	-	-	-	-	-	-		
5.260	92.450	104.920	104.920	302.290	5.260	0.781	-0.633	0.006	-0.009	0.002	0.003	5.260	-1.000	-1.000	-1.000	0.000	5.260	-	-	-	-	-	-		
5.265	94.600	107.500	107.500	309.600	5.265	0.781	-0.633	0.005	-0.011	0.002	0.004	5.270	-1.000	-1.000	-1.000	0.000	5.270	-	-	-	-	-	-		
5.270	94.600	104.920	104.920	304.440	5.270	0.781	-0.635	0.006	-0.013	0.003	0.004	5.270	-1.000	-1.000	-1.000	0.000	5.270	-	-	-	-	-	-		
5.275	92.450	107.500	107.500	307.450	5.275	0.781	-0.636	0.006	-0.014	0.004	0.005	5.275	-1.000	-1.000	-1.000	0.000	5.275	-	-	-	-	-	-		
5.280	94.600	104.920	104.920	304.440	5.280	0.781	-0.636	0.006	-0.015	0.005	0.005	5.280	-1.000	-1.000	-1.000	0.000	5.280	-	-	-	-	-	-		
5.285	92.450	104.920	107.500	304.870	5.285	0.781	-0.637	0.006	-0.015	0.006	0.005	5.285	-1.000	-1.000	-1.000	0.000	5.285	-	-	-	-	-	-		
5.290	94.600	104.920	104.920	304.440	5.290	0.780	-0.636	0.006	-0.015	0.006	0.005	5.290	-1.000	-1.000	-1.000	0.000	5.290	-	-	-	-	-	-		
5.295	92.450	107.500	104.920	304.870	5.295	0.780	-0.636	0.005	-0.014	0.006	0.005	5.295	-1.000	-1.000	-1.000	0.000	5.295	-	-	-	-	-	-		
5.300	94.600	104.920	104.920	304.440	5.300	0.781	-0.635	0.004	-0.012	0.005	0.005	5.300	-1.000	-1.000	-1.000	0.000	5.300	-	-	-	-	-	-		
5.305	92.450	104.920	104.920	302.290	5.305	0.781	-0.635	0.004	-0.011	0.004	0.004	5.305	72.220	77.280	112.240	261.740	5.305	0.788	-0.627	0.085	-0.009	0.010	0.000		
5.310	94.600	104.920	104.920	304.440	5.310	0.782	-0.634	0.005	-0.010	0.004	0.004	5.310	69.920	77.280	112.240	259.440	5.310	0.789	-0.627	0.084	-0.007	0.009	0.000		
5.315	92.450	107.500	104.920	304.870	5.315	0.783	-0.634	0.005	-0.009	0.003	0.004	5.315	69.920	77.280	112.240	259.440	5.315	0.789	-0.629	0.084	-0.005	0.007	0.000		
5.320	94.600	104.920	104.920	304.440	5.320	0.783	-0.634	0.005	-0.009	0.003	0.005	5.320	72.220	77.280	115.000	264.500	5.320	0.789	-0.630	0.084	-0.004	0.006	0.000		
5.325	92.450	107.500	107.500	307.450	5.325	0.783	-0.635	0.004	-0.007	0.003	0.005	5.325	69.920	77.280	112.240	259.440	5.325	0.789	-0.631	0.085	-0.004	0.006	-0.001		
5.330	92.450	104.920	104.920	302.290	5.330	0.783	-0.637	0.004	-0.007	0.003	0.005	5.330	69.920	77.280	112.240	259.440	5.330	0.788	-0.631	0.085	-0.004	0.006	-0.001		
5.335	92.450	107.500	107.500	307.450	5.335	0.782	-0.638	0.003	-0.006	0.004	0.006	5.335	72.220	77.280	112.240	261.740	5.335	0.788	-0.630	0.085	-0.005	0.006	-0.002		
5.340	94.600	104.920	104.920	304.440	5.340	0.780	-0.638	0.003	-0.005	0.004	0.005	5.340	72.220	77.280	112.240	261.740	5.340	0.789	-0.629	0.085	-0.006	0.007	-0.002		
5.345	92.450	107.500	107.500	307.450	5.345	0.779	-0.637	0.003	-0.003	0.004	0.005	5.345	69.920	77.280	115.000	262.200	5.345	0.789	-0.626	0.085	-0.007	0.009	-0.003		
5.350	94.600	104.920	107.500	307.020	5.350	0.779	-0.637	0.004	-0.002	0.004	0.004	5.350	69.920	79.580	112.240	261.740	5.350	0.790	-0.625	0.085	-0.007	0.009	-0.003		
5.355	94.600	104.920	107.500	307.020	5.355	0.779	-0.635	0.005	0.000	0.004	0.004	5.355	72.220	77.280	112.240	261.740	5.355	0.790	-0.625	0.085	-0.006	0.007	-0.002		
5.360	92.400	107.360	107.360	307.120	5.360	0.780	-0.635	0.007	0.000	0.003	0.003	5.360	69.920	77.280	112.240	259.440	5.360	0.789	-0.626	0.085	-0.004	0.006	-0.001		
5.365	92.400	104.720	104.720	301.840	5.365	0.781	-0.635	0.008	0.001	0.003	0.003	5.365	69.920	77.280	112.240	259.440	5.365	0.790	-0.627	0.085	-0.002	0.006	0.000		
5.370	94.600	107.360	104.720	306.680	5.370	0.781	-0.635	0.008	0.000	0.004	0.003	5.370	69.920	77.280	112.240	259.440	5.370	0.789	-0.628	0.086	-0.002	0.005	0.000		
5.375	92.400	104.720	104.720	301.840	5.375	0.780	-0.635	0.007	-0.001	0.004	0.003	5.375	69.920	77.280	115.000	262.200	5.375	0.789	-0.629	0.086	-0.002	0.005	0.001		
5.380	94.600	104.720	104.720	304.040	5.380	0.780	-0.635	0.007	-0.001	0.004	0.004	5.380	72.220	79.580	112.240	264.040	5.380	0.788	-0.629	0.087	-0.003	0.006	0.001		
5.385	89.760	104.720	104.720	299.200	5.385	0.780	-0.636	0.006	-0.002	0.004	0.004	5.385	72.220	77.280	112.240	261.740	5.385	0.788	-0.629	0.087	-0.005	0.006	0.001		
5.390	92.400	104.720	104.720	301.840	5.390	0.780	-0.636	0.005	-0.002	0.004	0.004	5.390	69.920	77.280	112.240	259.440	5.390	0.788	-0.629	0.088	-0.007	0.007	0.001		
5.395	94.600	107.360	107.360	309.320	5.395	0.780	-0.637	0.005	-0.002	0.004	0.003	5.395	69.920	79.580	112.240	261.740	5.395	0.788	-0.628	0.088	-0.009	0.007	0.000		
5.400	94.600	107.360	104.720	306.680	5.400	0.781	-0.637	0.005	-0.001	0.004	0.003	5.400	72.220	74.980	112.240	259.440	5.400	0.787	-0.628	0.088	-0.009	0.006	0.000		
5.405	92.400	107.360	107.360	307.120	5.405	0.781	-0.636	0.005	-0.001	0.004	0.003	5.405	69.920	77.280	112.240	259.440	5.405	0.787	-0.628	0.087	-0.007	0.005	-0.001		
5.410	92.400	104.720	110.000	307.120	5.410	0.781	-0.635	0.006	0.000	0.004	0.003	5.410	69.920	79.580	109.940	259.440	5.410	0.787	-0.628	0.086	-0.005	0.004	-0.001		
5.415	92.400	107.360	110.000	309.760	5.415	0.781	-0.634	0.006	0.000	0.004	0.003	5.415	69.920	79.580	115.000	264.500	5.415	0.788	-0.628	0.086	-0.004	0.003	-0.001		
5.420	94.600	104.720	107.360	306.680	5.420	0.781	-0.634	0.007	0.001	0.003	0.003	5.420	72.220	77.280	112.240	261.740	5.420	0.789	-0.627	0.085	-0.002	0.002	-0.001		
5.425	92.400	104.720	104.720	301.840	5.425	0.781	-0.634	0.007	0.001	0.003	0.003	5.425	74.980	79.580	112.240	266.800	5.425	0.790	-0.627	0.084	0.000	0.001	-0.001		
5.430	94.600	104.720	104.720	304.040	5.430	0.782	-0.635	0.008	0.002	0.002	0.004	5.430	69.920	77.280	115.000	262.200	5.430	0.790	-0.627	0.083	0.002	0.000	-0.001		
5.435	92.400	104.720	104.720	301.840	5.435	0.782	-0.636	0.008	0.002	0.002	0.004	5.435	69.920	77.280	112.240	259.440	5.435	0.791	-0.627	0.083	0.004	-0.001	-0.001		
5.440	94.600	107.360	104.720	306.680	5.440	0.782	-0.636	0.008	0.002	0.001	0.004	5.440	72.220	77.280	112.240	261.740	5.440	0.790	-0.627	0.084	0.006	-0.001	-0.002		
5.445	92.400	107.360	104.720	304.480	5.445	0.782	-0.637	0.008	0.002	0.001	0.004	5.445	69.920	79.580	112.240	261.740	5.445	0.790	-0.627	0.084	0.007	-0.001	-0.002		
5.450	92.400	107.360	107.360	307.120	5.450	0.781	-0.638	0.008	0.002	0.000	0.004	5.450	72.220	79.580	115.000	266.800	5.450	0.789	-0.627	0.085	0.007	-0.001	-0.002		
5.455	92.400	107.360	104.720	304.480	5.455	0.781	-0.638	0.007	0.003	0.000	0.005	5.455	72.220	77.280	109.940	259.440	5.455	0.788	-0.628	0.086	0.006	0.000	-0.002		
5.460	94.600	107.360	104.720	306.680	5.460	0.781	-0.638	0.006	0.003	-0.001	0.005	5.460	72.220	79.580	112.240	264.040	5.460	0.788	-0.628	0.087	0.005	0.001	-0.002		
5.465	94.600	104.720	104.720	304.040	5.465	0.781	-0.638	0.005	0.004	-0.002	0.005	5.465	69.920	77.280	115.000	262.200	5.465	0.788	-0.628	0.088	0.004	0.003	-0.002		

